Data from USB4F035431__17__14-46-40-507.txt Node

Date: Wed Feb 12 14:46:40 CET 2025
User: Versuch 234
Spectrometer: USB4F03543
Trigger mode: 4
Integration Time (sec): 1,000000E-1
Scans to average: 40
Electric dark correction enabled: true
Nonlinearity correction enabled: false
Boxcar width: 0
XAxis mode: Wavelengths
Number of Pixels in Spectrum: 3648
>>>>>Begin Spectral Data<<<<<
179,969	-177,33
180,181	-177,33
180,394	-177,33
180,606	-199,34
180,819	-179,68
181,031	22,55
181,243	77,13
181,456	-53,99
181,668	52,04
181,88	19,23
182,093	-19,28
182,305	-68,84
182,518	-32,49
182,73	42,93
182,942	3,05
183,155	-30,28
183,367	-12,06
183,579	39,09
183,791	287,97
184,004	349,2
184,216	366,3
184,428	353,86
184,641	357,7
184,853	311,62
185,065	327,85
185,277	373,01
185,49	390,42
185,702	318,54
185,914	302,87
186,126	352,17
186,338	372,91
186,551	370,2
186,763	372,65
186,975	305,74
187,187	365,18
187,399	333,79
187,612	368,66
187,824	346,95
188,036	369,84
188,248	382,53
188,46	375,06
188,672	384,33
188,885	340,14
189,097	403,94
189,309	319,36
189,521	353,2
189,733	375,42
189,945	366,51
190,157	379,41
190,369	323,45
190,581	331,18
190,794	390,98
191,006	308,76
191,218	349,92
191,43	377,88
191,642	314,54
191,854	365,13
192,066	404,5
192,278	386,78
192,49	303,59
192,702	345,57
192,914	371,37
193,126	379,57
193,338	363,9
193,55	356,99
193,762	407,37
193,974	315,98
194,186	339,83
194,398	346,44
194,61	375,78
194,822	413,41
195,034	413,82
195,246	435,83
195,457	418,84
195,669	507,1
195,881	482,53
196,093	476,64
196,305	499,42
196,517	393,29
196,729	476,33
196,941	393,65
197,153	460,87
197,365	453,55
197,576	334,56
197,788	324,12
198	403,37
198,212	431,28
198,424	404,76
198,636	325,4
198,847	321,04
199,059	376,95
199,271	339,94
199,483	381
199,695	362,72
199,906	398,1
200,118	335,28
200,33	425,54
200,542	736,53
200,753	369,27
200,965	352,63
201,177	408,34
201,389	402,45
201,6	323,71
201,812	382,74
202,024	373,47
202,235	348,85
202,447	408,39
202,659	403,48
202,871	366,97
203,082	354,22
203,294	330,57
203,506	381,77
203,717	375,06
203,929	387,3
204,141	338,76
204,352	431,02
204,564	333,59
204,775	352,38
204,987	453,96
205,199	391,39
205,41	370,55
205,622	401,63
205,833	339,37
206,045	387,96
206,257	348,13
206,468	317,46
206,68	319,41
206,891	347,36
207,103	328,26
207,314	305,38
207,526	386,48
207,737	345,62
207,949	383,92
208,16	389,34
208,372	363,59
208,583	371,99
208,795	372,96
209,006	373,83
209,218	393,13
209,429	337,02
209,641	365,38
209,852	363,28
210,064	386,89
210,275	339,99
210,487	399,89
210,698	411,41
210,909	384,58
211,121	377,98
211,332	383,76
211,544	402,55
211,755	441,11
211,966	439,11
212,178	370,91
212,389	496,2
212,6	363,74
212,812	480,07
213,023	400,3
213,234	416,17
213,446	389,24
213,657	330,93
213,868	420,99
214,08	463,33
214,291	390,57
214,502	395,03
214,714	320,12
214,925	354,22
215,136	364,87
215,347	376,6
215,559	328,21
215,77	336,92
215,981	428,51
216,192	323,86
216,404	373,98
216,615	415
216,826	405,88
217,037	362,46
217,249	405,37
217,46	449,61
217,671	397,95
217,882	371,83
218,093	387,91
218,304	396,77
218,516	410,9
218,727	340,14
218,938	349,92
219,149	490,92
219,36	406,85
219,571	405,98
219,782	354,32
219,993	446,38
220,205	346,03
220,416	447,2
220,627	391,55
220,838	439,42
221,049	529,68
221,26	447,25
221,471	369,38
221,682	406,55
221,893	443,51
222,104	325,19
222,315	306,91
222,526	331,13
222,737	374,65
222,948	340,55
223,159	401,99
223,37	413,82
223,581	357,45
223,792	365,23
224,003	383,05
224,214	354,43
224,425	424,47
224,636	320,17
224,847	421,04
225,058	395,18
225,269	411,16
225,48	379,16
225,691	347,62
225,902	414,33
226,112	405,52
226,323	352,84
226,534	399,07
226,745	381,97
226,956	383,61
227,167	377,36
227,378	404,5
227,589	373,93
227,799	490,67
228,01	426,41
228,221	399,33
228,432	450,53
228,643	435,07
228,853	475,36
229,064	489,59
229,275	554,41
229,486	541,87
229,697	566,14
229,907	566,39
230,118	583,65
230,329	521,69
230,54	460,36
230,75	470,65
230,961	470,14
231,172	399,79
231,383	363,44
231,593	376,85
231,804	435,17
232,015	429,13
232,225	426,57
232,436	411,1
232,647	466,6
232,857	473,06
233,068	428,97
233,279	472,9
233,489	452,88
233,7	472,08
233,91	450,73
234,121	463,74
234,332	487,49
234,542	503,83
234,753	483,96
234,964	540,95
235,174	512,94
235,385	569,16
235,595	544,58
235,806	627,27
236,016	542,63
236,227	542,02
236,437	538,95
236,648	576,27
236,858	586,51
237,069	564,04
237,279	590,1
237,49	597,73
237,7	622,56
237,911	625,83
238,121	590,45
238,332	593,68
238,542	668,23
238,753	647,29
238,963	621,33
239,174	700,07
239,384	648,21
239,595	657,99
239,805	638,33
240,015	649,28
240,226	664,34
240,436	693,98
240,647	677,44
240,857	659,88
241,067	695,62
241,278	831,09
241,488	650,97
241,698	710,16
241,909	659,52
242,119	676,52
242,329	689,83
242,54	700,79
242,75	664,54
242,96	639,25
243,171	680,57
243,381	699,61
243,591	665,62
243,801	769,04
244,012	778,36
244,222	709,75
244,432	649,64
244,642	704,17
244,853	713,23
245,063	726,24
245,273	768,78
245,483	744,87
245,694	739,85
245,904	771,96
246,114	801,7
246,324	750,15
246,534	791,16
246,744	752,65
246,955	692,34
247,165	863,4
247,375	867,55
247,585	789,82
247,795	813,89
248,005	824,13
248,215	860,22
248,425	866,88
248,636	988,78
248,846	817,73
249,056	837,75
249,266	816,04
249,476	847,73
249,686	877,94
249,896	823,57
250,106	853,72
250,316	841,02
250,526	957,81
250,736	813,84
250,946	944,09
251,156	927,24
251,366	843,48
251,576	919,05
251,786	931,08
251,996	850,19
252,206	851,62
252,416	876,35
252,626	819,57
252,836	827,05
253,046	889,66
253,256	920,54
253,466	862,02
253,676	874,05
253,885	924,84
254,095	858,84
254,305	880,24
254,515	871,28
254,725	859,56
254,935	828,02
255,145	867,34
255,355	881,78
255,564	815,17
255,774	809,23
255,984	894,17
256,194	841,95
256,404	835,9
256,614	867,14
256,823	923,76
257,033	863,55
257,243	901,7
257,453	877,94
257,662	862,58
257,872	906,97
258,082	862,02
258,292	797,25
258,501	948,95
258,711	1000,46
258,921	921,36
259,131	789,62
259,34	824,79
259,55	832,63
259,76	806,52
259,969	809,28
260,179	807,08
260,389	843,17
260,598	893,2
260,808	859,2
261,018	829,56
261,227	880,6
261,437	821,57
261,647	883,26
261,856	793,51
262,066	838,46
262,275	908,04
262,485	797,71
262,694	866,37
262,904	827,1
263,114	864,83
263,323	796,07
263,533	821,06
263,742	806,11
263,952	825,51
264,161	770,68
264,371	807,9
264,58	821,41
264,79	789,52
264,999	809,13
265,209	833,5
265,418	825,72
265,628	804,62
265,837	794,18
266,047	804,93
266,256	860,38
266,466	755,67
266,675	776,36
266,884	793
267,094	802,01
267,303	850,09
267,513	802,78
267,722	834,73
267,931	804,06
268,141	761,72
268,35	791,72
268,559	831,3
268,769	750,76
268,978	734,84
269,187	793,66
269,397	751,53
269,606	724,65
269,815	740,98
270,025	768,17
270,234	769,29
270,443	715,64
270,653	759,98
270,862	763,41
271,071	766,22
271,28	716,3
271,49	770,42
271,699	734,79
271,908	779,18
272,117	759,72
272,327	741,7
272,536	725,11
272,745	724,19
272,954	720,3
273,163	755,11
273,372	786,65
273,582	697,72
273,791	719,12
274	706,47
274,209	697,1
274,418	779,33
274,627	783,32
274,836	691,57
275,046	686,2
275,255	692,44
275,464	638,12
275,673	603,87
275,882	663,26
276,091	585,8
276,3	595,98
276,509	565,52
276,718	531,22
276,927	479,4
277,136	513,4
277,345	487,8
277,554	498,35
277,763	525,79
277,972	493,79
278,181	512,58
278,39	463,48
278,599	496,97
278,808	473,77
279,017	541,41
279,226	454,83
279,435	499,12
279,644	510,84
279,853	544,17
280,062	609,19
280,271	471,62
280,48	485,96
280,688	480,38
280,897	513,55
281,106	423,6
281,315	426,46
281,524	476,95
281,733	492
281,942	462,92
282,151	513,04
282,359	546,07
282,568	489,75
282,777	563,42
282,986	552,06
283,195	635,97
283,403	718,86
283,612	792,9
283,821	858,84
284,03	880,29
284,238	900,42
284,447	845,43
284,656	695,72
284,865	662,75
285,073	525,79
285,282	487,24
285,491	467,53
285,699	414,18
285,908	446,69
286,117	457,9
286,325	479,46
286,534	529,99
286,743	484,58
286,951	465,12
287,16	508,33
287,369	460,46
287,577	494,05
287,786	449,3
287,995	467,06
288,203	441,16
288,412	491,79
288,62	465,73
288,829	450,78
289,037	460,26
289,246	464,61
289,455	467,12
289,663	499,06
289,872	542,63
290,08	492,1
290,289	546,99
290,497	432,2
290,706	501,93
290,914	435,73
291,123	459,49
291,331	492,61
291,54	585,34
291,748	593,01
291,957	525,89
292,165	497,27
292,373	438,34
292,582	473,87
292,79	491,33
292,999	515,29
293,207	501,83
293,415	467,32
293,624	416,43
293,832	474,59
294,041	501,98
294,249	472,39
294,457	461,43
294,666	496,3
294,874	435,22
295,082	518,62
295,291	507,41
295,499	475,62
295,707	519,9
295,915	507
296,124	552,87
296,332	509,87
296,54	521,75
296,749	566,65
296,957	539
297,165	513,76
297,373	496,45
297,581	492,51
297,79	506,69
297,998	456,42
298,206	463,89
298,414	496,15
298,622	516,93
298,831	565,73
299,039	475,82
299,247	550,16
299,455	522,16
299,663	575,66
299,871	504,18
300,08	496,2
300,288	521,8
300,496	496,86
300,704	483,04
300,912	503,93
301,12	511,56
301,328	505,93
301,536	499,78
301,744	464,76
301,952	536,13
302,16	471,93
302,368	500,14
302,576	524,97
302,784	591,02
302,992	509,25
303,2	596,39
303,408	666,54
303,616	749,63
303,824	936,82
304,032	1031,43
304,24	1089,9
304,448	991,45
304,656	884,65
304,864	867,03
305,072	714,82
305,28	646,11
305,488	562,3
305,696	560,4
305,904	560,09
306,111	471,72
306,319	523,28
306,527	551,9
306,735	561,43
306,943	556,87
307,151	529,89
307,359	491,44
307,566	599,98
307,774	598,6
307,982	579,45
308,19	509,87
308,398	563,42
308,605	582,88
308,813	555,84
309,021	584,52
309,229	608,89
309,436	538,9
309,644	585,8
309,852	587,23
310,06	641,91
310,267	515,45
310,475	545,09
310,683	547,24
310,89	549,09
311,098	578,12
311,306	517,91
311,513	581,39
311,721	501,78
311,929	555,08
312,136	534,14
312,344	518,21
312,552	591,48
312,759	508,28
312,967	591,99
313,174	580,68
313,382	557,94
313,589	572,79
313,797	625,01
314,005	573,3
314,212	573
314,42	483,65
314,627	526,56
314,835	519,39
315,042	544,84
315,25	479,66
315,457	507,77
315,665	467,22
315,872	594,4
316,08	599,26
316,287	518,88
316,495	861,3
316,702	526,25
316,909	518,06
317,117	602,28
317,324	564,5
317,532	619,23
317,739	534,8
317,946	554,36
318,154	539,51
318,361	535,21
318,569	604,18
318,776	551,08
318,983	540,02
319,191	594,91
319,398	580,47
319,605	579,55
319,813	615,8
320,02	518,67
320,227	672,37
320,434	667,61
320,642	606,02
320,849	599,26
321,056	630,13
321,264	648,57
321,471	633,97
321,678	656,5
321,885	615,49
322,092	683,07
322,3	636,02
322,507	584,36
322,714	645,75
322,921	597,06
323,128	588,82
323,336	607,5
323,543	674,17
323,75	681,23
323,957	657,78
324,164	644,98
324,371	659,98
324,578	561,99
324,786	670,58
324,993	622,76
325,2	651,89
325,407	553,8
325,614	630,85
325,821	712,72
326,028	784,19
326,235	699,92
326,442	670,84
326,649	653,12
326,856	722,8
327,063	663,77
327,27	690,86
327,477	743,23
327,684	736,83
327,891	850,91
328,098	1119,6
328,305	1810,28
328,512	2905,94
328,719	5830,8
328,926	10421,58
329,133	19359,17
329,34	32443,9
329,546	51711,29
329,753	62946,39
329,96	64330,05
330,167	64330,05
330,374	64330,05
330,581	52210,84
330,788	32704,45
330,995	17987,64
331,201	10662,88
331,408	5571,73
331,615	3062,61
331,822	1732,35
332,029	1285,13
332,235	1051,71
332,442	944,55
332,649	870,62
332,856	805,8
333,062	793,87
333,269	779,74
333,476	800,73
333,683	761,41
333,889	775,74
334,096	753,52
334,303	793,31
334,509	723,68
334,716	754,04
334,923	752,14
335,129	719,17
335,336	759,72
335,543	739,44
335,749	722,8
335,956	811,58
336,163	690,86
336,369	740,62
336,576	757,62
336,782	777,79
336,989	705,96
337,196	753,83
337,402	685,63
337,609	705,86
337,815	728,39
338,022	779,53
338,228	774,87
338,435	889,87
338,641	810,97
338,848	840,61
339,054	809,02
339,261	747,89
339,467	709,75
339,674	808,92
339,88	792,13
340,087	751,58
340,293	735,86
340,5	764,07
340,706	773,7
340,912	725,83
341,119	745,03
341,325	743,95
341,532	752,35
341,738	759,98
341,944	818,55
342,151	791,05
342,357	767,09
342,563	818,8
342,77	761,56
342,976	756,39
343,182	894,53
343,389	770,98
343,595	754,09
343,801	731,2
344,007	797,3
344,214	730,08
344,42	778,56
344,626	779,94
344,832	751,94
345,039	799,09
345,245	799,5
345,451	778,3
345,657	828,38
345,864	768,83
346,07	830,32
346,276	825,2
346,482	910,14
346,688	841,48
346,894	779,28
347,1	829,04
347,307	820,19
347,513	861,04
347,719	807,44
347,925	822,03
348,131	754,24
348,337	895,86
348,543	785,98
348,749	796,53
348,955	890,94
349,161	782,2
349,367	841,38
349,573	895,4
349,779	883,11
349,985	832,83
350,191	817,78
350,397	857,82
350,603	883,57
350,809	823,97
351,015	864,17
351,221	838,16
351,427	887,72
351,633	856,08
351,839	900,01
352,045	858,89
352,251	935,64
352,457	876,51
352,663	879,42
352,869	859,56
353,075	873,13
353,28	835,96
353,486	870,98
353,692	860,38
353,898	866,06
354,104	881,32
354,31	952,54
354,515	905,84
354,721	976,75
354,927	1000,41
355,133	1052,07
355,339	1018,28
355,544	1039,16
355,75	1024,93
355,956	1012,59
356,162	1013,87
356,367	995,9
356,573	1016,02
356,779	992,42
356,984	1048,33
357,19	1097,43
357,396	1092,62
357,602	1240,94
357,807	1206,84
358,013	1295,31
358,218	1372,93
358,424	1367,92
358,63	1370,88
358,835	1379,28
359,041	1258,86
359,247	1223,28
359,452	1111,56
359,658	1088,42
359,863	1085,86
360,069	1069,68
360,274	1053,96
360,48	1108,59
360,685	1034,35
360,891	1048,48
361,097	956,63
361,302	979,83
361,508	1041,72
361,713	981,31
361,918	1067,27
362,124	953,05
362,329	1019,04
362,535	1012,34
362,74	1017,35
362,946	1032,61
363,151	1040,8
363,357	1007,27
363,562	1012,54
363,767	961,34
363,973	1056,47
364,178	990,63
364,383	993,8
364,589	1036,2
364,794	977,27
365	1045,1
365,205	1073,83
365,41	1009,52
365,615	1070,91
365,821	986,33
366,026	1071,93
366,231	1038,91
366,437	1065,69
366,642	972,61
366,847	1082,68
367,052	1038,45
367,258	981,57
367,463	1003,17
367,668	1029,33
367,873	1110,02
368,078	1101,22
368,284	976,91
368,489	1028,93
368,694	1081,25
368,899	1069,99
369,104	1050,07
369,309	1041,26
369,515	1007,58
369,72	1074,95
369,925	1014,33
370,13	1071,01
370,335	1094,36
370,54	1023,55
370,745	1059,03
370,95	1058,11
371,155	1124,87
371,36	1077,72
371,565	1078,23
371,77	1083,35
371,975	998
372,18	1123,08
372,385	1109,21
372,59	1085,91
372,795	1046,44
373	1097,63
373,205	1098,4
373,41	1086,17
373,615	1038,5
373,82	1024,27
374,025	1063,74
374,23	1010,75
374,435	1104,03
374,64	1112,33
374,845	1115,04
375,05	1102,19
375,254	1070,04
375,459	1048,12
375,664	1062,77
375,869	1087,91
376,074	1063,59
376,279	1067,32
376,483	1093,49
376,688	1060,46
376,893	1158,46
377,098	1068,66
377,303	1120,42
377,507	1114,94
377,712	1179,6
377,917	1129,48
378,122	1137,37
378,326	1102,81
378,531	1057,7
378,736	1064,56
378,94	1064,71
379,145	1062,46
379,35	1077,97
379,554	1074,59
379,759	1042,49
379,964	1095,69
380,168	1044,13
380,373	1083,45
380,578	1136,65
380,782	1137,88
380,987	1103,47
381,191	1081,2
381,396	1093,03
381,601	1079,97
381,805	1086,42
382,01	1168,85
382,214	1116,27
382,419	1113,71
382,623	1131,32
382,828	1119,5
383,032	1093,95
383,237	1030,51
383,441	1047,25
383,646	1086,68
383,85	999,13
384,055	1063,33
384,259	1049,2
384,464	1001,99
384,668	1010,29
384,872	1035,89
385,077	1035,58
385,281	1062,72
385,486	1011,52
385,69	1081,61
385,894	1129,02
386,099	1118,73
386,303	1088,88
386,507	1130,61
386,712	1146,12
386,916	1060
387,12	1063,79
387,325	1127,94
387,529	1094,41
387,733	1112,58
387,937	1064,71
388,142	1063,89
388,346	1057,7
388,55	1131,68
388,754	1108,95
388,959	1059,39
389,163	1082,38
389,367	1063,33
389,571	1025,24
389,775	1092,77
389,98	1066,45
390,184	1052,99
390,388	1039,16
390,592	1080,33
390,796	1087,19
391	1086,88
391,204	1099,89
391,409	1105,93
391,613	1163,43
391,817	1188,82
392,021	1295,52
392,225	1253,43
392,429	1202,18
392,633	1175,46
392,837	1162,71
393,041	1157,18
393,245	1174,02
393,449	1169,42
393,653	1334,28
393,857	1495,66
394,061	1598,57
394,265	1559,45
394,469	1585,41
394,673	1496,89
394,877	1359,88
395,081	1323,06
395,285	1234,9
395,489	1113,05
395,693	1105,52
395,896	1063,33
396,1	1071,01
396,304	1076,54
396,508	1010,13
396,712	1027,49
396,916	1018,43
397,12	1074,39
397,323	1085,4
397,527	1063,59
397,731	1100,71
397,935	1057,75
398,139	1029,33
398,342	1087,34
398,546	1074,03
398,75	1030,21
398,954	1075,93
399,157	1113,97
399,361	1114,58
399,565	1028,98
399,769	1154,41
399,972	1087,45
400,176	1076,85
400,38	1054,93
400,583	1062,67
400,787	1109,62
400,991	1077,87
401,194	1103,57
401,398	1107,26
401,601	1097,94
401,805	1123,39
402,009	1119,55
402,212	1128,46
402,416	1261,83
402,619	1173,05
402,823	1331,92
403,026	1414,76
403,23	1639,27
403,433	2007,29
403,637	2048,76
403,841	2159,1
404,044	2117,47
404,247	1916,11
404,451	1706,6
404,654	1539,48
404,858	1422,03
405,061	1314,87
405,265	1239,15
405,468	1239,46
405,672	1156,31
405,875	1182,37
406,078	1145,71
406,282	1132,65
406,485	1123,13
406,689	1214,78
406,892	1243,86
407,095	1163,68
407,299	1168,55
407,502	1237,87
407,705	1205,82
407,909	1303,86
408,112	1387,01
408,315	1483,01
408,518	1589,91
408,722	1517,37
408,925	1511,17
409,128	1526,74
409,331	1435,04
409,535	1439,65
409,738	1358,44
409,941	1381,38
410,144	1251,18
410,347	1318,25
410,551	1250,46
410,754	1195,42
410,957	1227,12
411,16	1197,58
411,363	1257,12
411,566	1263,11
411,769	1292,7
411,973	1299,51
412,176	1386,65
412,379	1418,91
412,582	1348,66
412,785	1302,18
412,988	1217,18
413,191	1288,04
413,394	1275,86
413,597	1299
413,8	1407,54
414,003	1730,1
414,206	1987,84
414,409	2800,06
414,612	3678,33
414,815	4607,14
415,018	5093,63
415,221	5372,36
415,424	5244,52
415,627	4443,09
415,83	3594,52
416,033	2975,16
416,235	2537,77
416,438	2245,57
416,641	2015,53
416,844	2000,94
417,047	1988,24
417,25	2072,93
417,453	2282,74
417,655	2499,93
417,858	2907,94
418,061	3172,99
418,264	3548,03
418,467	4384,21
418,669	5304,88
418,872	6171,48
419,075	6474,32
419,278	6594,08
419,48	6368,59
419,683	5476,14
419,886	4108,87
420,089	3444,61
420,291	2723,62
420,494	2262,42
420,697	1934,13
420,899	1810,33
421,102	1555,51
421,305	1568,97
421,507	1455,52
421,71	1430,89
421,912	1418,55
422,115	1335,51
422,318	1390,9
422,52	1376,21
422,723	1378,26
422,925	1440,87
423,128	1462,68
423,33	1397,51
423,533	1450,86
423,735	1530,22
423,938	1632,31
424,14	1723,14
424,343	2012,15
424,545	2337,37
424,748	2536,49
424,95	2761,61
425,153	3076,33
425,355	3341,75
425,558	3578,24
425,76	3491,45
425,962	3580,95
426,165	3525,09
426,367	3571,89
426,57	3419,26
426,772	2935,17
426,974	2570,69
427,177	2130,32
427,379	1938,22
427,581	1898,85
427,784	1716,33
427,986	1625,75
428,188	1712,33
428,39	1810,28
428,593	2030,23
428,795	2359,08
428,997	2547,44
429,2	2424,05
429,402	2529,93
429,604	2248,03
429,806	2018,5
430,008	1910,11
430,211	1771,11
430,413	1657,86
430,615	1645,47
430,817	1625,96
431,019	1599,13
431,221	1672,09
431,423	1605,07
431,626	1773,87
431,828	1984
432,03	2292,62
432,232	2671,75
432,434	2867,34
432,636	2966,71
432,838	2811,22
433,04	2693,82
433,242	2513,19
433,444	2274,91
433,646	2240,04
433,848	2113,02
434,05	2010,41
434,252	1803,83
434,454	1713,61
434,656	1639,12
434,858	1633,54
435,06	1574,86
435,262	1570,61
435,464	1543,68
435,666	1637,33
435,868	1615,57
436,07	1556,84
436,271	1530,98
436,473	1554,89
436,675	1645,57
436,877	1568,26
437,079	1604,05
437,281	1592,53
437,482	1680,54
437,684	1656,58
437,886	1700,35
438,088	1753,96
438,29	1736,7
438,491	1730,82
438,693	1630,36
438,895	1648,85
439,097	1692,57
439,298	1592,17
439,5	1532,47
439,702	1521,26
439,903	1521,72
440,105	1562,11
440,307	1651,56
440,508	1591,71
440,71	1567,08
440,912	1630,06
441,113	1566,72
441,315	1630,16
441,517	1616,28
441,718	1651,51
441,92	1621,1
442,121	1647,05
442,323	1602,77
442,524	1592,42
442,726	1637,07
442,928	1571,64
443,129	1556,53
443,331	1543,48
443,532	1573,33
443,734	1522,28
443,935	1623,71
444,136	1526,84
444,338	1636,15
444,539	1643,42
444,741	1690,37
444,942	1655,86
445,144	1697,84
445,345	1729,02
445,546	1623,25
445,748	1617,46
445,949	1588,17
446,151	1563,39
446,352	1570,56
446,553	1717,35
446,755	1579,01
446,956	1637,94
447,157	1649,46
447,359	1680,69
447,56	1736,7
447,761	1754,32
447,962	1926,86
448,164	2050,45
448,365	2106,36
448,566	2237,18
448,767	2166,21
448,969	2349,15
449,17	2220,33
449,371	2111,58
449,572	2293,55
449,773	2302,04
449,974	2404,7
450,176	2378,23
450,377	2365,28
450,578	2262,62
450,779	2074,87
450,98	1967,46
451,181	2018,86
451,382	1990,7
451,583	1957,17
451,784	1887,38
451,986	1847,6
452,187	1816,68
452,388	1771,93
452,589	1769,93
452,79	1849,03
452,991	1939,09
453,192	2242,86
453,393	2525,38
453,594	3468,31
453,795	4471,56
453,995	5899,2
454,196	6914,89
454,397	7544,74
454,598	7370,46
454,799	6516,3
455	5224,91
455,201	4057,61
455,402	3391,41
455,603	2708,77
455,804	2480,93
456,004	2266,05
456,205	2059,36
456,406	2012,21
456,607	1926,81
456,808	1968,69
457,008	1842,84
457,209	1833,73
457,41	1967,1
457,611	1963,41
457,811	2143,53
458,012	2055,32
458,213	2084,86
458,414	2160,89
458,614	2192,22
458,815	2211,32
459,016	2348,89
459,216	2248,39
459,417	2162,17
459,618	2129,91
459,818	2041,8
460,019	1976,78
460,22	1926,29
460,42	1913,75
460,621	1877,96
460,821	1854,1
461,022	1959,42
461,223	1945,95
461,423	1941,7
461,624	2040,88
461,824	2016,46
462,025	2019,27
462,225	1945,34
462,426	2004,78
462,626	1925,12
462,827	1949,54
463,027	1977,85
463,228	1954,3
463,428	1966,13
463,628	1951,84
463,829	2033,81
464,029	1916,72
464,23	1985,22
464,43	2132,11
464,63	2296,21
464,831	2717,58
465,031	3443,22
465,231	4151,87
465,432	4888,68
465,632	5187,63
465,832	4917,1
466,033	4871,99
466,233	4236,86
466,433	3632,61
466,634	3152,46
466,834	2899,44
467,034	2517,18
467,234	2492,76
467,435	2314,44
467,635	2239,89
467,835	2113,99
468,035	2163,76
468,235	2104,83
468,436	2159,61
468,636	2170,36
468,836	2183,62
469,036	2331,59
469,236	2338,7
469,436	2301,12
469,636	2332,15
469,836	2167,24
470,037	2170,97
470,237	2172,97
470,437	2195,4
470,637	2167,34
470,837	2116,35
471,037	2172,77
471,237	2116,86
471,437	2138,67
471,637	2125,2
471,837	2117,57
472,037	2074,98
472,237	2113,58
472,437	2119,52
472,637	2243,17
472,837	2248,8
473,036	2309,11
473,236	2599,1
473,436	2750,19
473,636	3038,9
473,836	3107,82
474,036	3294,8
474,236	3196,29
474,436	3067,68
474,635	2893,91
474,835	2725,82
475,035	2693,82
475,235	2602,43
475,435	2568,43
475,634	2493,43
475,834	2550,92
476,034	2532,49
476,234	2437,16
476,433	2402,96
476,633	2524,2
476,833	2377,67
477,033	2342,19
477,232	2358,42
477,432	2339,88
477,632	2468,8
477,831	2405,67
478,031	2413,3
478,231	2432,3
478,43	2451,85
478,63	2421,9
478,829	2354,42
479,029	2449,65
479,229	2431,07
479,428	2384,83
479,628	2418,57
479,827	2437,77
480,027	2360,98
480,226	2517,24
480,426	2430,45
480,625	2412,48
480,825	2449,45
481,024	2420,88
481,224	2539,92
481,423	2448,58
481,623	2594,24
481,822	2519,49
482,021	2661,41
482,221	2699,35
482,42	2737,08
482,62	2732,43
482,819	2682,81
483,018	2677,85
483,218	2606,78
483,417	2660,39
483,616	2578,73
483,816	2668,07
484,015	2648,71
484,214	2676
484,414	2778,15
484,613	2812,45
484,812	2727,05
485,011	2692,13
485,211	2739,7
485,41	2767,55
485,609	2714,71
485,808	2776,87
486,008	2873,48
486,207	2914,29
486,406	3009,93
486,605	3088,26
486,804	3197,16
487,003	3271,76
487,203	3352,35
487,402	3319,99
487,601	3387,78
487,8	3435,13
487,999	3352,09
488,198	3353,83
488,397	3268,33
488,596	3191,99
488,795	3115,45
488,994	3118,21
489,193	2983,2
489,392	3024,11
489,591	2922,84
489,79	2893,4
489,989	2908,91
490,188	2949,82
490,387	2959,44
490,586	2944,24
490,785	3078,12
490,984	3295,92
491,183	3784,47
491,382	4808,3
491,581	6696,88
491,779	8906,39
491,978	10372,78
492,177	11160,84
492,376	11274,4
492,575	10324,66
492,774	8310,99
492,972	6762,11
493,171	5761,42
493,37	4944,08
493,569	4458,5
493,768	4047,07
493,966	3812,68
494,165	3702,09
494,364	3673,06
494,563	3555,61
494,761	3496,16
494,96	3452,95
495,159	3497,7
495,357	3589,96
495,556	4467,77
495,755	6191,44
495,953	10156,62
496,152	16623,29
496,35	25096,86
496,549	34430,02
496,748	41845,1
496,946	44422,62
497,145	43270,99
497,343	38970,93
497,542	32008,65
497,74	24239,43
497,939	19268,54
498,137	15227,39
498,336	12178,22
498,534	9987,76
498,733	8686,74
498,931	7665,42
499,13	6817,36
499,328	6107,79
499,527	5677,46
499,725	4930,56
499,924	4502,89
500,122	4022,49
500,32	3810,89
500,519	3525,25
500,717	3310,41
500,915	3163,83
501,114	3128,71
501,312	3095,79
501,51	3048,68
501,709	3089,95
501,907	3178,27
502,105	3081,3
502,304	3192,19
502,502	3186,46
502,7	3195,93
502,898	3200,39
503,097	3213,34
503,295	3246,57
503,493	3304,88
503,691	3327,97
503,889	3310
504,088	3364,68
504,286	3504,66
504,484	3521,82
504,682	3566,05
504,88	3548,03
505,078	3596,62
505,276	3539,48
505,474	3585,1
505,672	3412,97
505,871	3454,95
506,069	3444,56
506,267	3368,63
506,465	3353,47
506,663	3273,14
506,861	3250,92
507,059	3313,74
507,257	3296,49
507,455	3316,76
507,653	3313,02
507,851	3300,58
508,049	3215,54
508,246	3311,95
508,444	3296,95
508,642	3259,88
508,84	3306,42
509,038	3310,67
509,236	3399,19
509,434	3301,35
509,632	3446,35
509,829	3465,55
510,027	3430,89
510,225	3491,25
510,423	3499,19
510,621	3476,91
510,818	3554,74
511,016	3479,22
511,214	3410,35
511,412	3432,83
511,609	3299,71
511,807	3382,14
512,005	3348,97
512,203	3485,31
512,4	3590,27
512,598	3886,92
512,796	4549,79
512,993	5892,39
513,191	7813,44
513,389	10187,13
513,586	12902,13
513,784	14551,51
513,981	14992,8
514,179	14519,97
514,377	13145,58
514,574	11343,52
514,772	9450,07
514,969	8276,17
515,167	7142,06
515,364	6446,42
515,562	5716,06
515,759	5405,95
515,957	4970,91
516,154	4777,73
516,352	4690,23
516,549	4471,41
516,746	4395,99
516,944	4477,5
517,141	4465,01
517,339	4458,2
517,536	4546,21
517,733	4377,81
517,931	4285,86
518,128	4168,21
518,325	4018,96
518,523	3990,24
518,72	3894,14
518,917	3900,28
519,115	3844,57
519,312	3855,07
519,509	3880,98
519,707	3880
519,904	3944,72
520,101	4119,16
520,298	4279,26
520,495	4424,51
520,693	4391,79
520,89	4536,02
521,087	4428,04
521,284	4504,33
521,481	4244,65
521,678	4220,17
521,876	4144,65
522,073	4110,45
522,27	4100,72
522,467	4078,61
522,664	4098,16
522,861	4127,86
523,058	4123,35
523,255	4062,17
523,452	4185,1
523,649	4158,78
523,846	4223,96
524,043	4288,98
524,24	4286,58
524,437	4216,64
524,634	4178,85
524,831	4096,32
525,028	4066,52
525,225	3995,87
525,422	4013,94
525,619	3956,09
525,816	3916,82
526,013	4072,77
526,209	4010,87
526,406	3978,97
526,603	4058,28
526,8	4050,04
526,997	4117,77
527,194	4172,76
527,39	4141,99
527,587	4049,63
527,784	4064,94
527,981	4049,88
528,177	4002,78
528,374	4005,55
528,571	4085,26
528,768	3953,48
528,964	4008,67
529,161	4016,5
529,358	4115,47
529,554	4055
529,751	4066,63
529,948	4050,45
530,144	4142,71
530,341	4080,86
530,537	4146,7
530,734	4185
530,931	4139,69
531,127	4125,51
531,324	4203,79
531,52	4156,12
531,717	4161,55
531,913	4194,27
532,11	4144,6
532,306	4138,92
532,503	4088,64
532,699	4089,72
532,896	4173,73
533,092	4121,67
533,289	4089,61
533,485	4809,27
533,682	4167,13
533,878	4198,57
534,074	4139,33
534,271	4231,95
534,467	4303,47
534,664	4236,3
534,86	4264,66
535,056	4324
535,253	4360,61
535,449	4412,07
535,645	4405,92
535,841	4453,9
536,038	4462,55
536,234	4428,86
536,43	4500,13
536,626	4519,79
536,823	4492,55
537,019	4492,04
537,215	4522,81
537,411	4654,19
537,607	4608,93
537,804	4590,8
538	4601,04
538,196	4594,23
538,392	4533,77
538,588	4578,72
538,784	4484,97
538,98	4431,42
539,176	4494,91
539,373	4596,59
539,569	4585,89
539,765	4572,06
539,961	4689,46
540,157	4770,56
540,353	4730,88
540,549	4946,89
540,745	4858,93
540,941	4885,4
541,137	4890,83
541,333	4864,26
541,528	4818,03
541,724	4838,66
541,92	4872,04
542,116	4810,14
542,312	4890,47
542,508	4964,87
542,704	5001,73
542,9	5084,88
543,096	5093,89
543,291	5223,88
543,487	5247,74
543,683	5333,96
543,879	5383,57
544,075	5293,41
544,27	5282,71
544,466	5180,06
544,662	5238,06
544,858	5199,56
545,053	5143,24
545,249	5122,15
545,445	5149,95
545,64	5040,84
545,836	5021,44
546,032	5000,45
546,227	4966,96
546,423	5041,25
546,619	4999,58
546,814	5087,69
547,01	5097,22
547,205	5223,42
547,401	5372,67
547,597	5781,7
547,792	6047,57
547,988	6384,98
548,183	6510,42
548,379	6701,9
548,574	6679,58
548,77	6521,12
548,965	6411,7
549,161	6264,2
549,356	6207,78
549,552	6191,09
549,747	6051,62
549,942	5963,76
550,138	5948,76
550,333	5892,49
550,529	5977,69
550,724	6004,21
550,919	6088,94
551,115	6170,66
551,31	6299,32
551,505	6373,25
551,701	6450,51
551,896	6506,63
552,091	6656,9
552,287	6691,76
552,482	6728,88
552,677	6684,9
552,872	6609,44
553,067	6653,88
553,263	6721,25
553,458	6734,87
553,653	6899,99
553,848	7187,47
554,043	7405,84
554,239	7709,3
554,434	7879,79
554,629	7967,85
554,824	7955,21
555,019	7804,42
555,214	7718,56
555,409	7747,9
555,604	7825,88
555,799	7830,59
555,994	7900,22
556,189	7943,69
556,384	8036,66
556,579	8096
556,774	8088,99
556,969	8244,94
557,164	8333,31
557,359	8604,31
557,554	8790,98
557,749	9020,92
557,944	9334,05
558,139	9698,13
558,334	9987,82
558,529	10435,25
558,724	10886
558,918	11348,95
559,113	11691,42
559,308	12154,05
559,503	12355,68
559,698	12495,66
559,893	12733,48
560,087	12949,74
560,282	13145,12
560,477	13588,96
560,672	13770,72
560,866	14022,83
561,061	14293,06
561,256	14706,49
561,45	14838,99
561,645	15276,85
561,84	15771,48
562,034	16175,65
562,229	16591,34
562,424	17293,02
562,618	17870,4
562,813	18561,89
563,008	19237,42
563,202	20164,33
563,397	20821,06
563,591	21583,47
563,786	22483,19
563,98	23227,68
564,175	23309,14
564,369	23589,81
564,564	24094,58
564,758	24435,06
564,953	24570,99
565,147	25044,23
565,342	25512,34
565,536	27620,88
565,731	33509,66
565,925	50263,22
566,119	62851,83
566,314	63193,22
566,508	64330,05
566,703	64330,05
566,897	64330,05
567,091	64330,05
567,286	64330,05
567,48	64330,05
567,674	64330,05
567,868	64330,05
568,063	64330,05
568,257	64330,05
568,451	64330,05
568,646	64330,05
568,84	64330,05
569,034	64330,05
569,228	64330,05
569,422	64330,05
569,616	64330,05
569,811	64330,05
570,005	64330,05
570,199	64330,05
570,393	64330,05
570,587	64330,05
570,781	64330,05
570,975	64330,05
571,169	64330,05
571,364	64330,05
571,558	64330,05
571,752	64330,05
571,946	64330,05
572,14	64330,05
572,334	64330,05
572,528	64330,05
572,722	64330,05
572,916	64330,05
573,109	64330,05
573,303	64330,05
573,497	64330,05
573,691	64330,05
573,885	64330,05
574,079	64330,05
574,273	64330,05
574,467	64330,05
574,661	64330,05
574,854	64330,05
575,048	64330,05
575,242	64330,05
575,436	64330,05
575,63	64330,05
575,823	64330,05
576,017	64330,05
576,211	64330,05
576,405	64330,05
576,598	64330,05
576,792	64330,05
576,986	64330,05
577,18	64330,05
577,373	64330,05
577,567	64330,05
577,761	64330,05
577,954	64330,05
578,148	64330,05
578,341	64330,05
578,535	64330,05
578,729	64330,05
578,922	64330,05
579,116	64330,05
579,309	64330,05
579,503	64330,05
579,696	64330,05
579,89	64330,05
580,083	64330,05
580,277	64330,05
580,47	64330,05
580,664	64330,05
580,857	64330,05
581,051	64330,05
581,244	64330,05
581,437	64330,05
581,631	64330,05
581,824	64330,05
582,018	64330,05
582,211	64330,05
582,404	64330,05
582,598	64330,05
582,791	64330,05
582,984	64330,05
583,178	64330,05
583,371	64330,05
583,564	64330,05
583,757	64330,05
583,951	64330,05
584,144	64330,05
584,337	64330,05
584,53	64330,05
584,723	64330,05
584,917	64330,05
585,11	64330,05
585,303	64330,05
585,496	64330,05
585,689	64330,05
585,882	64330,05
586,075	64330,05
586,268	64330,05
586,462	64330,05
586,655	64330,05
586,848	64330,05
587,041	64330,05
587,234	64330,05
587,427	64330,05
587,62	64330,05
587,813	64330,05
588,006	64330,05
588,199	64330,05
588,392	64330,05
588,585	64330,05
588,777	64330,05
588,97	64330,05
589,163	64330,05
589,356	64330,05
589,549	64330,05
589,742	64330,05
589,935	64330,05
590,128	64330,05
590,32	64330,05
590,513	64330,05
590,706	64330,05
590,899	64330,05
591,092	64330,05
591,284	64330,05
591,477	64330,05
591,67	64330,05
591,863	64330,05
592,055	64330,05
592,248	64330,05
592,441	64330,05
592,633	64330,05
592,826	64330,05
593,019	64330,05
593,211	64330,05
593,404	64330,05
593,596	64330,05
593,789	64330,05
593,982	64330,05
594,174	64330,05
594,367	64330,05
594,559	64330,05
594,752	64330,05
594,944	64330,05
595,137	64330,05
595,329	64330,05
595,522	64330,05
595,714	64330,05
595,907	64330,05
596,099	64330,05
596,292	64330,05
596,484	64330,05
596,676	64330,05
596,869	64330,05
597,061	64330,05
597,253	64330,05
597,446	64330,05
597,638	64330,05
597,83	64330,05
598,023	64330,05
598,215	64330,05
598,407	64330,05
598,6	64330,05
598,792	64330,05
598,984	64330,05
599,176	64330,05
599,369	64330,05
599,561	64330,05
599,753	64330,05
599,945	64330,05
600,137	64330,05
600,329	64330,05
600,522	64330,05
600,714	64330,05
600,906	64330,05
601,098	64330,05
601,29	64330,05
601,482	64330,05
601,674	64330,05
601,866	64330,05
602,058	64330,05
602,25	64330,05
602,442	64330,05
602,634	64330,05
602,826	64330,05
603,018	64330,05
603,21	64330,05
603,402	64330,05
603,594	64330,05
603,786	64330,05
603,978	64330,05
604,17	64330,05
604,362	64330,05
604,554	64330,05
604,745	64330,05
604,937	64330,05
605,129	64330,05
605,321	64330,05
605,513	64330,05
605,704	64330,05
605,896	64330,05
606,088	64330,05
606,28	64330,05
606,471	64330,05
606,663	64330,05
606,855	64330,05
607,047	64330,05
607,238	64330,05
607,43	64330,05
607,622	64330,05
607,813	64330,05
608,005	64330,05
608,197	64330,05
608,388	64330,05
608,58	64330,05
608,771	64330,05
608,963	64330,05
609,154	64330,05
609,346	64330,05
609,537	64330,05
609,729	64330,05
609,921	64330,05
610,112	64330,05
610,303	64330,05
610,495	64330,05
610,686	64330,05
610,878	64330,05
611,069	64330,05
611,261	64330,05
611,452	64330,05
611,643	64330,05
611,835	64330,05
612,026	64330,05
612,217	64330,05
612,409	64330,05
612,6	64330,05
612,791	64330,05
612,983	64330,05
613,174	64330,05
613,365	64330,05
613,557	64330,05
613,748	64330,05
613,939	64330,05
614,13	64330,05
614,321	64330,05
614,513	64330,05
614,704	64330,05
614,895	64330,05
615,086	64330,05
615,277	64330,05
615,468	64330,05
615,659	64330,05
615,851	64330,05
616,042	64330,05
616,233	64330,05
616,424	64330,05
616,615	64330,05
616,806	64330,05
616,997	64330,05
617,188	64330,05
617,379	64330,05
617,57	64330,05
617,761	64330,05
617,952	64330,05
618,143	64330,05
618,334	64330,05
618,524	64330,05
618,715	64330,05
618,906	64330,05
619,097	64330,05
619,288	64330,05
619,479	64330,05
619,67	64330,05
619,86	64330,05
620,051	64330,05
620,242	64330,05
620,433	64330,05
620,624	64330,05
620,814	64330,05
621,005	64330,05
621,196	64330,05
621,386	64330,05
621,577	64330,05
621,768	64330,05
621,958	64330,05
622,149	64330,05
622,34	64330,05
622,53	64330,05
622,721	64330,05
622,912	64330,05
623,102	64330,05
623,293	64330,05
623,483	64330,05
623,674	64330,05
623,864	64330,05
624,055	64330,05
624,245	64330,05
624,436	64330,05
624,626	64330,05
624,817	64330,05
625,007	64330,05
625,198	64330,05
625,388	64330,05
625,579	64330,05
625,769	64330,05
625,959	64330,05
626,15	64330,05
626,34	64330,05
626,531	64330,05
626,721	64330,05
626,911	64330,05
627,101	64330,05
627,292	64330,05
627,482	64330,05
627,672	64330,05
627,863	64330,05
628,053	64330,05
628,243	64330,05
628,433	64330,05
628,623	64330,05
628,814	64330,05
629,004	64330,05
629,194	64330,05
629,384	64330,05
629,574	64330,05
629,764	64330,05
629,955	64330,05
630,145	64330,05
630,335	64330,05
630,525	64330,05
630,715	64330,05
630,905	64330,05
631,095	64330,05
631,285	64330,05
631,475	64330,05
631,665	64330,05
631,855	64330,05
632,045	64330,05
632,235	64330,05
632,425	64330,05
632,615	64330,05
632,805	64330,05
632,994	64330,05
633,184	64330,05
633,374	64330,05
633,564	64330,05
633,754	64330,05
633,944	64330,05
634,133	64330,05
634,323	64330,05
634,513	64330,05
634,703	64330,05
634,893	64330,05
635,082	64330,05
635,272	64330,05
635,462	64330,05
635,651	64330,05
635,841	64330,05
636,031	64330,05
636,221	64330,05
636,41	64330,05
636,6	64330,05
636,789	64330,05
636,979	64330,05
637,169	64330,05
637,358	64330,05
637,548	64330,05
637,737	64330,05
637,927	64330,05
638,116	64330,05
638,306	64330,05
638,495	64330,05
638,685	64330,05
638,874	64330,05
639,064	64330,05
639,253	64330,05
639,443	64330,05
639,632	64330,05
639,822	64330,05
640,011	64330,05
640,2	64330,05
640,39	64330,05
640,579	64330,05
640,768	64330,05
640,958	64330,05
641,147	64330,05
641,336	64330,05
641,526	64330,05
641,715	64330,05
641,904	64330,05
642,093	64330,05
642,283	64330,05
642,472	64330,05
642,661	64330,05
642,85	64330,05
643,039	64330,05
643,228	64330,05
643,418	64330,05
643,607	64330,05
643,796	64330,05
643,985	64330,05
644,174	64330,05
644,363	64330,05
644,552	64330,05
644,741	64330,05
644,93	64330,05
645,119	64330,05
645,308	64330,05
645,497	64330,05
645,686	64330,05
645,875	64330,05
646,064	64330,05
646,253	64330,05
646,442	64330,05
646,631	64330,05
646,82	64330,05
647,009	64330,05
647,198	64330,05
647,387	64330,05
647,575	64330,05
647,764	64330,05
647,953	64330,05
648,142	64330,05
648,331	64330,05
648,519	64330,05
648,708	64330,05
648,897	64330,05
649,086	64330,05
649,274	64330,05
649,463	64330,05
649,652	64330,05
649,84	64330,05
650,029	64330,05
650,218	64330,05
650,406	64330,05
650,595	64330,05
650,784	64330,05
650,972	64330,05
651,161	64330,05
651,349	64330,05
651,538	64330,05
651,726	64330,05
651,915	64330,05
652,104	64330,05
652,292	64330,05
652,481	64330,05
652,669	64330,05
652,857	64330,05
653,046	64330,05
653,234	64330,05
653,423	64330,05
653,611	64330,05
653,8	64330,05
653,988	64330,05
654,176	64330,05
654,365	64330,05
654,553	64330,05
654,741	64330,05
654,93	64330,05
655,118	64330,05
655,306	64330,05
655,494	64330,05
655,683	64330,05
655,871	64330,05
656,059	64330,05
656,247	64330,05
656,436	64330,05
656,624	64330,05
656,812	64330,05
657	64330,05
657,188	64330,05
657,376	64330,05
657,564	64330,05
657,753	64330,05
657,941	64330,05
658,129	64330,05
658,317	64330,05
658,505	64330,05
658,693	64330,05
658,881	64330,05
659,069	64330,05
659,257	64330,05
659,445	64330,05
659,633	64330,05
659,821	64330,05
660,009	64330,05
660,197	64330,05
660,384	64330,05
660,572	64330,05
660,76	64330,05
660,948	64330,05
661,136	64330,05
661,324	64330,05
661,512	64330,05
661,699	64330,05
661,887	64330,05
662,075	64330,05
662,263	64330,05
662,451	64330,05
662,638	64330,05
662,826	64330,05
663,014	64330,05
663,201	64330,05
663,389	64330,05
663,577	64330,05
663,764	64330,05
663,952	64330,05
664,14	64330,05
664,327	64330,05
664,515	64330,05
664,702	64330,05
664,89	64330,05
665,078	64330,05
665,265	64330,05
665,453	64330,05
665,64	64330,05
665,828	64330,05
666,015	64330,05
666,203	64330,05
666,39	64330,05
666,578	64330,05
666,765	64330,05
666,952	64330,05
667,14	64330,05
667,327	64330,05
667,515	64330,05
667,702	64330,05
667,889	64330,05
668,077	64330,05
668,264	64330,05
668,451	36346,81
668,638	64330,05
668,826	4703,08
669,013	64330,05
669,2	4662,53
669,388	64330,05
669,575	4577,49
669,762	63935,97
669,949	4500,28
670,136	5178,11
670,323	4399,16
670,511	4333,02
670,698	4306,24
670,885	4265,59
671,072	4255,09
671,259	4187,76
671,446	4150,23
671,633	4072,97
671,82	4016,66
672,007	4023,31
672,194	4032,48
672,381	4018,65
672,568	4131,14
672,755	4305,62
672,942	4794,37
673,129	5536,4
673,316	6203,43
673,503	6687,92
673,69	6932,76
673,877	6973,82
674,064	6534,99
674,251	5907,44
674,437	5556,52
674,624	5276,21
674,811	5046,83
674,998	4770,1
675,185	4562,39
675,372	4487,94
675,558	4296,66
675,745	4160,37
675,932	4091,15
676,119	3955,68
676,305	3891,52
676,492	3872,89
676,679	3781,8
676,865	3764,14
677,052	3659,69
677,239	3657,7
677,425	3601,43
677,612	3702,19
677,798	3560,88
677,985	3555,91
678,172	3500,62
678,358	3474,25
678,545	3424,08
678,731	3419,31
678,918	3360,49
679,104	3392,64
679,291	3585,71
679,477	3315,12
679,664	3335,04
679,85	3303,25
680,036	3342,31
680,223	3243,75
680,409	3318,91
680,596	3307,65
680,782	3399,86
680,968	3362,79
681,155	3319,42
681,341	3322,45
681,527	3283,89
681,714	3242,11
681,9	3200,34
682,086	3195,62
682,272	3127,07
682,459	3128,25
682,645	3200,44
682,831	3145,76
683,017	3187,38
683,204	3201,31
683,39	3094,51
683,576	3180,57
683,762	3085,03
683,948	3082,47
684,134	3011,05
684,32	3100,45
684,506	3248,77
684,693	3612,54
684,879	4051,93
685,065	4727,35
685,251	5064,45
685,437	5436,21
685,623	5514,18
685,809	5334,32
685,995	4852,84
686,181	4539,45
686,366	4327,03
686,552	4180,44
686,738	3977,08
686,924	3911,49
687,11	3766,75
687,296	3732,86
687,482	3594,52
687,668	3458,94
687,853	3349,89
688,039	3329
688,225	3265,61
688,411	3215,18
688,597	3248,31
688,782	3172,12
688,968	3122,31
689,154	3118,77
689,34	3148,93
689,525	3163,73
689,711	3068,29
689,897	3149,19
690,082	3031,63
690,268	3045,41
690,454	2987,09
690,639	2981,71
690,825	2992,82
691,01	3011,41
691,196	3013,66
691,381	3213,19
691,567	3377,48
691,753	3672,44
691,938	3823,84
692,124	3950,61
692,309	4004,01
692,494	3894,08
692,68	3717,19
692,865	3680,02
693,051	3646,89
693,236	3697,43
693,422	3830,44
693,607	4483,54
693,792	8141,47
693,978	22452,67
694,163	55228,57
694,348	62408,95
694,534	62240,41
694,719	64075,44
694,904	63851,65
695,089	64330,05
695,275	64330,05
695,46	64330,05
695,645	64330,05
695,83	64330,05
696,016	64330,05
696,201	64330,05
696,386	64330,05
696,571	64330,05
696,756	64330,05
696,941	64330,05
697,126	64330,05
697,311	64330,05
697,497	64330,05
697,682	64330,05
697,867	64330,05
698,052	64330,05
698,237	64330,05
698,422	64330,05
698,607	57343,25
698,792	24852,28
698,977	4936,81
699,162	4232,36
699,347	3716,68
699,531	3373,7
699,716	3201,1
699,901	3024,16
700,086	3021,75
700,271	2935,64
700,456	3110,94
700,641	3429,66
700,825	3893,11
701,01	4442,74
701,195	4746,91
701,38	4992,31
701,565	4946,33
701,749	4617,68
701,934	4163,19
702,119	3977,03
702,303	3686,16
702,488	3517,05
702,673	3401,09
702,857	3245,08
703,042	3098,6
703,227	3148,32
703,411	3058,26
703,596	3247,59
703,78	3639,98
703,965	5997,3
704,15	14756,56
704,334	35388,72
704,519	60515,81
704,703	62395,34
704,888	62862,63
705,072	64036,89
705,257	64065,1
705,441	64330,05
705,625	64330,05
705,81	64330,05
705,994	64330,05
706,179	64330,05
706,363	64330,05
706,547	64330,05
706,732	64330,05
706,916	61963,88
707,1	32720,27
707,285	17270,65
707,469	14705,41
707,653	12995,21
707,837	11250,18
708,022	9560,92
708,206	7937,95
708,39	6357,43
708,574	5348,5
708,759	4511,39
708,943	3937,71
709,127	3629,79
709,311	3416,86
709,495	3154,87
709,679	2991,6
709,863	2877,68
710,047	2839,48
710,231	2846,45
710,415	2732,48
710,6	2786,29
710,784	2739,39
710,968	2787,62
711,152	2760,48
711,336	2688,19
711,519	2686,45
711,703	2636,73
711,887	2816,24
712,071	3393,2
712,255	5111,04
712,439	8033,08
712,623	10801,68
712,807	12722,31
712,991	14069,06
713,174	14363,1
713,358	12997,87
713,542	10878,32
713,726	9326,94
713,91	8363,52
714,093	7395,19
714,277	6483,69
714,461	5709,15
714,645	5108,17
714,828	4648,15
715,012	4324,57
715,196	4006,26
715,379	3802,28
715,563	3572,76
715,747	3320,76
715,93	3141,2
716,114	2950,28
716,297	2779,99
716,481	2681,89
716,664	2634,69
716,848	2568,08
717,031	2533,26
717,215	2469,21
717,398	2495,63
717,582	2469,01
717,765	2521,69
717,949	2429,38
718,132	2509,91
718,316	2541,2
718,499	2715,99
718,682	2926,27
718,866	2907,42
719,049	3049,4
719,233	2968,04
719,416	2951,71
719,599	2860,01
719,782	2706,88
719,966	2607,65
720,149	2578,93
720,332	2543,91
720,515	2508,17
720,699	2538,59
720,882	2536,95
721,065	2474,28
721,248	2501,06
721,431	2489,38
721,615	2399,78
721,798	2428,1
721,981	2375,52
722,164	2303,58
722,347	2357,65
722,53	2436,95
722,713	2326,42
722,896	2351,81
723,079	2365,74
723,262	2372,44
723,445	2466,96
723,628	2352,73
723,811	2370,91
723,994	2394,05
724,177	2504,84
724,36	2702,47
724,543	3712,22
724,726	7077,34
724,909	14890,65
725,091	25039,36
725,274	33444,84
725,457	38814,77
725,64	42331,9
725,823	41006,56
726,006	34803,72
726,188	27911,64
726,371	23966,99
726,554	20083,38
726,737	17227,33
726,919	14507,58
727,102	12388,96
727,285	10497,15
727,467	9086,3
727,65	7876,46
727,833	6798
728,015	5714,58
728,198	4827,86
728,38	4070,77
728,563	3497,44
728,746	3146,17
728,928	3022,47
729,111	2953,81
729,293	3035,32
729,476	3102,44
729,658	3058,36
729,841	3008,24
730,023	3068,45
730,205	2856,48
730,388	2809,53
730,57	2757,77
730,753	2668,43
730,935	2691,82
731,117	2678,92
731,3	2540,38
731,482	2580,42
731,664	2577,65
731,847	2628,08
732,029	2624,55
732,211	2579,34
732,394	2508,53
732,576	2576,98
732,758	2717,88
732,94	2901,23
733,122	3166,8
733,305	3429,25
733,487	3488,54
733,669	3666,81
733,851	3619,86
734,033	3497,03
734,215	3345,43
734,397	3261,21
734,58	3384,19
734,762	3701,37
734,944	4302,5
735,126	4948,69
735,308	5659,08
735,49	7192,95
735,672	13147,93
735,854	32963,26
736,036	61814,69
736,218	62230,17
736,399	63516,85
736,581	63897,06
736,763	64330,05
736,945	64330,05
737,127	64330,05
737,309	64330,05
737,491	64330,05
737,672	64330,05
737,854	64330,05
738,036	64330,05
738,218	64330,05
738,4	64330,05
738,581	64330,05
738,763	64330,05
738,945	64330,05
739,127	64330,05
739,308	64330,05
739,49	64330,05
739,672	64330,05
739,853	64330,05
740,035	64330,05
740,216	64330,05
740,398	64330,05
740,58	45301,45
740,761	9901,6
740,943	3274,98
741,124	3253,53
741,306	3315,18
741,487	3405,59
741,669	3476,91
741,85	3451,77
742,032	3521,71
742,213	3323,78
742,394	3152,36
742,576	3064,81
742,757	3025,9
742,939	2932
743,12	2801,6
743,301	2783,62
743,483	2715,89
743,664	2678,72
743,845	2703,7
744,027	2734,32
744,208	2684,45
744,389	2749,58
744,57	2768,42
744,752	2920,48
744,933	2974,39
745,114	2981,92
745,295	3029,43
745,476	3110,84
745,657	3050,63
745,839	3021,34
746,02	3078,48
746,201	3146,73
746,382	3137,41
746,563	3236,74
746,744	3237,56
746,925	3256,24
747,106	3359,67
747,287	3610,7
747,468	4766,57
747,649	9752,35
747,83	25943,23
748,011	57377,25
748,192	62160,79
748,373	62143,08
748,554	63828,4
748,735	63654,89
748,915	64330,05
749,096	64330,05
749,277	64330,05
749,458	64330,05
749,639	64330,05
749,82	64330,05
750	64330,05
750,181	64330,05
750,362	64330,05
750,543	64330,05
750,723	64330,05
750,904	64330,05
751,085	64330,05
751,265	64330,05
751,446	64330,05
751,627	64330,05
751,807	64330,05
751,988	64330,05
752,169	64330,05
752,349	64330,05
752,53	64330,05
752,71	64330,05
752,891	64330,05
753,071	64330,05
753,252	64330,05
753,432	64330,05
753,613	64330,05
753,793	64330,05
753,974	64330,05
754,154	64330,05
754,334	64330,05
754,515	64330,05
754,695	64330,05
754,876	64330,05
755,056	64330,05
755,236	64330,05
755,417	58890,9
755,597	29111,08
755,777	3179,09
755,957	3190,61
756,138	3167,06
756,318	3161,37
756,498	3246,67
756,678	3373,13
756,859	3509,37
757,039	3542,86
757,219	3703,01
757,399	3724,21
757,579	3713,81
757,759	3600,15
757,939	3535,02
758,119	3534,41
758,3	3521,61
758,48	3466,11
758,66	3448,86
758,84	3435,49
759,02	3617,3
759,2	3580,18
759,38	3702,6
759,56	3904,68
759,74	3978,92
759,919	4137,28
760,099	4607,49
760,279	5282,91
760,459	7385,77
760,639	16580,59
760,819	62041,29
760,999	61853,8
761,178	63761,79
761,358	63539,02
761,538	64330,05
761,718	64330,05
761,898	64330,05
762,077	64330,05
762,257	64330,05
762,437	64330,05
762,616	64330,05
762,796	64330,05
762,976	64330,05
763,155	64330,05
763,335	64330,05
763,515	64330,05
763,694	64330,05
763,874	64330,05
764,053	64330,05
764,233	64330,05
764,413	64330,05
764,592	64330,05
764,772	64330,05
764,951	64330,05
765,131	64330,05
765,31	64330,05
765,489	64330,05
765,669	64330,05
765,848	64330,05
766,028	64330,05
766,207	64330,05
766,386	64330,05
766,566	64330,05
766,745	64330,05
766,924	64330,05
767,104	64330,05
767,283	64330,05
767,462	64330,05
767,642	64330,05
767,821	64330,05
768	64330,05
768,179	64330,05
768,358	64330,05
768,538	64330,05
768,717	64330,05
768,896	64330,05
769,075	64330,05
769,254	64330,05
769,433	64330,05
769,612	64330,05
769,791	64330,05
769,97	64330,05
770,149	64330,05
770,328	64330,05
770,507	64330,05
770,686	64330,05
770,865	64330,05
771,044	64330,05
771,223	64330,05
771,402	64330,05
771,581	64330,05
771,76	64330,05
771,939	64330,05
772,118	64330,05
772,297	64330,05
772,475	64330,05
772,654	64330,05
772,833	64330,05
773,012	64330,05
773,191	64330,05
773,369	64330,05
773,548	64330,05
773,727	64330,05
773,906	64330,05
774,084	64330,05
774,263	64330,05
774,442	64330,05
774,62	64330,05
774,799	64330,05
774,977	64330,05
775,156	64330,05
775,335	64330,05
775,513	64330,05
775,692	64330,05
775,87	64330,05
776,049	64330,05
776,227	64330,05
776,406	64330,05
776,584	64330,05
776,763	64330,05
776,941	64330,05
777,119	64330,05
777,298	64330,05
777,476	64330,05
777,655	64330,05
777,833	64330,05
778,011	64330,05
778,19	64330,05
778,368	64330,05
778,546	64330,05
778,725	64330,05
778,903	64330,05
779,081	64330,05
779,259	64330,05
779,437	64330,05
779,616	64330,05
779,794	64330,05
779,972	64330,05
780,15	64330,05
780,328	64330,05
780,506	64330,05
780,685	64330,05
780,863	64330,05
781,041	64330,05
781,219	64330,05
781,397	64330,05
781,575	64330,05
781,753	64330,05
781,931	64330,05
782,109	64330,05
782,287	64330,05
782,465	64330,05
782,643	64330,05
782,82	64330,05
782,998	64330,05
783,176	64330,05
783,354	64330,05
783,532	64330,05
783,71	64330,05
783,888	64330,05
784,065	64330,05
784,243	64330,05
784,421	64330,05
784,599	64330,05
784,776	64330,05
784,954	64330,05
785,132	64330,05
785,31	64330,05
785,487	64330,05
785,665	64330,05
785,842	64330,05
786,02	64330,05
786,198	64330,05
786,375	64330,05
786,553	64330,05
786,73	64330,05
786,908	64330,05
787,085	64330,05
787,263	64330,05
787,44	64330,05
787,618	36913,64
787,795	64330,05
787,973	2423,75
788,15	22778,97
788,328	2388,52
788,505	2423,95
788,682	2369,83
788,86	2378,08
789,037	2382,22
789,215	2378,02
789,392	2347,61
789,569	2419,19
789,746	2356,37
789,924	2333,23
790,101	2357,03
790,278	2342,85
790,455	2287,56
790,633	2314,13
790,81	2319,3
790,987	2309,83
791,164	2358,47
791,341	2439,57
791,518	2520,82
791,695	2835,13
791,873	3885,64
792,05	8192,31
792,227	22248,44
792,404	52526,17
792,581	61980,88
792,758	61822,47
792,935	63659,85
793,112	63458,64
793,289	64330,05
793,466	64330
793,643	64330,05
793,82	64330,05
793,996	64330,05
794,173	64330,05
794,35	64330,05
794,527	64330,05
794,704	64330,05
794,881	64330,05
795,057	64330,05
795,234	64330,05
795,411	64330,05
795,588	37679,53
795,765	6506,01
795,941	4010,77
796,118	3612,74
796,295	3444,2
796,471	3209,45
796,648	3134,29
796,825	3148,06
797,001	3081,4
797,178	3141,25
797,354	3223,43
797,531	3339,9
797,708	4106,05
797,884	7286,49
798,061	17068,21
798,237	35961,69
798,414	57661,61
798,59	61963,16
798,767	62001,67
798,943	63616,23
799,119	63516,24
799,296	64330,05
799,472	64330,05
799,649	64330,05
799,825	64330,05
800,001	64330,05
800,178	64330,05
800,354	64330,05
800,53	64330,05
800,707	64330,05
800,883	64330,05
801,059	64330,05
801,235	64330,05
801,411	64330,05
801,588	64330,05
801,764	64330,05
801,94	64330,05
802,116	64330,05
802,292	64330,05
802,468	64330,05
802,645	64330,05
802,821	64330,05
802,997	64330,05
803,173	33547,7
803,349	5333,6
803,525	3472,72
803,701	3398,73
803,877	3290,86
804,053	3249,18
804,229	3196,85
804,405	3246,16
804,581	3164,24
804,756	3161,88
804,932	3051,19
805,108	3162,81
805,284	3206,53
805,46	3261,36
805,636	3314
805,812	3375,59
805,987	3420,65
806,163	3442,41
806,339	3631,13
806,515	3502,1
806,69	3543,01
806,866	3699,12
807,042	3882,36
807,217	4218,43
807,393	5400,47
807,569	10172,18
807,744	27231,92
807,92	60498,97
808,096	61936,03
808,271	62612,27
808,447	63595,8
808,622	63777,97
808,798	64330,05
808,973	64330,05
809,149	64330,05
809,324	64330,05
809,5	64330,05
809,675	64330,05
809,851	64330,05
810,026	64330,05
810,201	64330,05
810,377	64330,05
810,552	64330,05
810,728	64330,05
810,903	64330,05
811,078	64330,05
811,253	64330,05
811,429	64330,05
811,604	64330,05
811,779	64330,05
811,955	64330,05
812,13	64330,05
812,305	64330,05
812,48	64330,05
812,655	64330,05
812,83	64330,05
813,006	64330,05
813,181	64330,05
813,356	64330,05
813,531	64330,05
813,706	64330,05
813,881	64330,05
814,056	64330,05
814,231	64330,05
814,406	64330,05
814,581	64330,05
814,756	64330,05
814,931	64330,05
815,106	64330,05
815,281	64330,05
815,456	64330,05
815,631	64330,05
815,805	64330,05
815,98	64330,05
816,155	64330,05
816,33	64330,05
816,505	64330,05
816,68	64330,05
816,854	64330,05
817,029	64330,05
817,204	64330,05
817,379	64330,05
817,553	64330,05
817,728	64330,05
817,903	64330,05
818,077	64330,05
818,252	64330,05
818,427	64330,05
818,601	64330,05
818,776	64330,05
818,95	64330,05
819,125	64330,05
819,299	64330,05
819,474	64330,05
819,648	64330,05
819,823	64330,05
819,997	64330,05
820,172	64330,05
820,346	64330,05
820,521	64330,05
820,695	64330,05
820,87	64330,05
821,044	64330,05
821,218	64330,05
821,393	64330,05
821,567	64330,05
821,741	64330,05
821,916	64330,05
822,09	64330,05
822,264	64330,05
822,438	64330,05
822,613	64330,05
822,787	64330,05
822,961	64330,05
823,135	64330,05
823,309	64330,05
823,483	64330,05
823,658	64330,05
823,832	64330,05
824,006	64330,05
824,18	64330,05
824,354	64330,05
824,528	64330,05
824,702	64330,05
824,876	64330,05
825,05	64330,05
825,224	64330,05
825,398	64330,05
825,572	64330,05
825,746	64330,05
825,92	64330,05
826,093	64330,05
826,267	64330,05
826,441	64330,05
826,615	64330,05
826,789	64330,05
826,963	64330,05
827,136	64330,05
827,31	64330,05
827,484	64330,05
827,658	64330,05
827,831	64330,05
828,005	64330,05
828,179	64330,05
828,353	64330,05
828,526	64330,05
828,7	64330,05
828,873	64330,05
829,047	64330,05
829,221	64330,05
829,394	64330,05
829,568	64330,05
829,741	64330,05
829,915	64330,05
830,088	64330,05
830,262	64330,05
830,435	64330,05
830,609	64330,05
830,782	64330,05
830,956	64330,05
831,129	64330,05
831,302	64330,05
831,476	64330,05
831,649	64330,05
831,822	64330,05
831,996	64330,05
832,169	64330,05
832,342	64330,05
832,516	64330,05
832,689	64330,05
832,862	64330,05
833,035	64330,05
833,209	64330,05
833,382	64330,05
833,555	64330,05
833,728	64330,05
833,901	64330,05
834,074	64330,05
834,247	64330,05
834,42	64330,05
834,594	64330,05
834,767	64330,05
834,94	64330,05
835,113	64330,05
835,286	64330,05
835,459	64330,05
835,632	64330,05
835,805	64330,05
835,977	64330,05
836,15	64330,05
836,323	64330,05
836,496	64330,05
836,669	64330,05
836,842	64330,05
837,015	64330,05
837,188	64330,05
837,36	64330,05
837,533	64330,05
837,706	64330,05
837,879	64330,05
838,051	64330,05
838,224	64330,05
838,397	64330,05
838,569	64330,05
838,742	64330,05
838,915	64330,05
839,087	64330,05
839,26	64330,05
839,433	64330,05
839,605	64330,05
839,778	64330,05
839,95	64330,05
840,123	64330,05
840,295	64330,05
840,468	64330,05
840,64	64330,05
840,813	64330,05
840,985	64330,05
841,158	64330,05
841,33	64330,05
841,502	64330,05
841,675	64330,05
841,847	64330,05
842,019	64330,05
842,192	64330,05
842,364	64330,05
842,536	64330,05
842,709	64330,05
842,881	64330,05
843,053	64330,05
843,225	64330,05
843,398	64330,05
843,57	64330,05
843,742	64330,05
843,914	64330,05
844,086	64330,05
844,258	64330,05
844,43	64330,05
844,602	64330,05
844,775	64330,05
844,947	64330,05
845,119	64330,05
845,291	64330,05
845,463	64330,05
845,635	64330,05
845,807	64330,05
845,979	64330,05
846,15	64330,05
846,322	64330,05
846,494	64330,05
846,666	64330,05
846,838	64330,05
847,01	64330,05
847,182	64330,05
847,354	64330,05
847,525	64330,05
847,697	64330,05
847,869	64330,05
848,041	64330,05
848,212	64330,05
848,384	64330,05
848,556	64330,05
848,727	64330,05
848,899	64330,05
849,071	64330,05
849,242	64330,05
849,414	64330,05
849,585	64330,05
849,757	64330,05
849,929	64330,05
850,1	64330,05
850,272	64330,05
850,443	64330,05
850,615	64330,05
850,786	64330,05
850,958	64330,05
851,129	64330,05
851,3	64330,05
851,472	64330,05
851,643	64330,05
851,815	64330,05
851,986	64330,05
852,157	64330,05
852,329	64330,05
852,5	64330,05
852,671	64330,05
852,842	64330,05
853,014	64330,05
853,185	64330,05
853,356	10418,2
853,527	23641,47
853,698	1935,41
853,87	1780,48
854,041	1840,33
854,212	1716,17
854,383	1710,49
854,554	1641,93
854,725	1739,52
854,896	1604,61
855,067	1609,99
855,238	1560,63
855,409	1556,99
855,58	1539,48
855,751	1640,09
855,922	1611,57
856,093	1782,07
856,264	1556,89
856,435	1622,58
856,606	1620,22
856,777	1625,86
856,948	1568,72
857,118	1519,72
857,289	1517,06
857,46	1589,2
857,631	1521,56
857,802	1509,69
857,972	1507,94
858,143	1618,69
858,314	1506,72
858,484	1507,13
858,655	1575,22
858,826	1594,01
858,996	1581,88
859,167	1596,26
859,338	1520,85
859,508	1474,97
859,679	1455,98
859,849	1436,47
860,02	1463,35
860,19	1446,86
860,361	1480,45
860,531	1390,49
860,702	1536,87
860,872	1492,74
861,043	1374,06
861,213	1449,27
861,384	1404,27
861,554	1388,29
861,724	1368,58
861,895	1418,3
862,065	1488,28
862,235	1455,26
862,406	1426,28
862,576	1397,66
862,746	1384,86
862,916	1420,96
863,087	1481,32
863,257	1424,03
863,427	1384,55
863,597	1466,01
863,767	1539,59
863,937	1554,02
864,108	1865,42
864,278	2222,94
864,448	2845,78
864,618	3663,28
864,788	4585,33
864,958	5514,28
865,128	5991,2
865,298	6169,74
865,468	5931,51
865,638	5401,8
865,808	4845,26
865,978	4250,69
866,148	3624,93
866,318	3409,79
866,487	3305,19
866,657	2987,04
866,827	2784,8
866,997	2400,4
867,167	2239,94
867,337	1988,65
867,506	1750,22
867,676	1575,37
867,846	1464,17
868,016	1445,38
868,185	1294,03
868,355	1350,97
868,525	1305,86
868,694	1269,2
868,864	1311,8
869,034	1263,42
869,203	1263,78
869,373	1274,37
869,542	1342,73
869,712	1301,25
869,881	1329,72
870,051	1279,8
870,22	1296,19
870,39	1268,9
870,559	1255,99
870,729	1191,89
870,898	1286,82
871,068	1271,25
871,237	1205,26
871,406	1197,88
871,576	1225,17
871,745	1203,57
871,914	1230,8
872,084	1239
872,253	1239,81
872,422	1237,31
872,591	1300,9
872,761	1215,65
872,93	1585,51
873,099	1214,32
873,268	1208,22
873,437	1134,09
873,607	1159,18
873,776	1196,6
873,945	1144,28
874,114	1127,02
874,283	1136,6
874,452	1148,17
874,621	1177,4
874,79	1217,13
874,959	1189,54
875,128	1157,28
875,297	1186,77
875,466	1239,15
875,635	1226,66
875,804	1170,9
875,973	1140,64
876,142	1204,13
876,31	1099,99
876,479	1122,06
876,648	1109,1
876,817	1047,1
876,986	1116,99
877,155	1105,67
877,323	1051,3
877,492	1129,69
877,661	1169,88
877,829	1110,28
877,998	1086,68
878,167	1134,45
878,335	1075,93
878,504	1104,19
878,673	1097,74
878,841	1082,38
879,01	1098,71
879,178	1104,09
879,347	1082,58
879,515	1074,9
879,684	1118,68
879,852	1024,57
880,021	1036,3
880,189	1054,06
880,358	1050,43
880,526	1193,33
880,695	979,98
880,863	1054,99
881,031	1038,65
881,2	1069,07
881,368	1018,79
881,536	1144,48
881,705	1076,59
881,873	1084,99
882,041	1088,88
882,21	1081,35
882,378	1113,76
882,546	1026,93
882,714	999,59
882,882	983,46
883,05	1044,64
883,219	971,68
883,387	998,56
883,555	996,41
883,723	996,52
883,891	1048,18
884,059	1013,57
884,227	1075,87
884,395	1062,51
884,563	1115,35
884,731	1035,33
884,899	1083,86
885,067	1009,98
885,235	990,42
885,403	1012,69
885,571	1005,12
885,739	939,74
