Data from USB4F035431__5__14-10-19-738.txt Node

Date: Wed Feb 12 14:10:19 CET 2025
User: Versuch 234
Spectrometer: USB4F03543
Trigger mode: 4
Integration Time (sec): 1,000000E-1
Scans to average: 1
Electric dark correction enabled: true
Nonlinearity correction enabled: false
Boxcar width: 0
XAxis mode: Wavelengths
Number of Pixels in Spectrum: 3648
>>>>>Begin Spectral Data<<<<<
179,969	-57,34
180,181	-57,34
180,394	-57,34
180,606	-167,93
180,819	-83,97
181,031	57,34
181,243	49,15
181,456	-38,91
181,668	26,62
181,88	47,1
182,093	-20,48
182,305	-22,53
182,518	-45,06
182,73	34,82
182,942	-16,38
183,155	-63,49
183,367	-8,19
183,579	36,86
183,791	32,77
184,004	22,53
184,216	-6,14
184,428	53,25
184,641	22,53
184,853	-2,05
185,065	-77,82
185,277	49,15
185,49	-65,53
185,702	-34,82
185,914	34,82
186,126	-28,67
186,338	67,58
186,551	24,58
186,763	16,38
186,975	-30,72
187,187	43,01
187,399	-63,49
187,612	40,96
187,824	30,72
188,036	-24,58
188,248	55,3
188,46	53,25
188,672	30,72
188,885	-18,43
189,097	139,26
189,309	-6,14
189,521	32,77
189,733	43,01
189,945	-8,19
190,157	0
190,369	61,44
190,581	-2,05
190,794	73,73
191,006	-65,53
191,218	-14,34
191,43	16,38
191,642	-30,72
191,854	51,2
192,066	26,62
192,278	51,2
192,49	-53,25
192,702	40,96
192,914	49,15
193,126	2,05
193,338	73,73
193,55	-6,14
193,762	-47,1
193,974	-22,53
194,186	-16,38
194,398	18,43
194,61	83,97
194,822	63,49
195,034	10,24
195,246	75,77
195,457	-36,86
195,669	108,54
195,881	-22,53
196,093	-38,91
196,305	55,3
196,517	-47,1
196,729	38,91
196,941	-43,01
197,153	-14,34
197,365	92,16
197,576	-49,15
197,788	10,24
198	32,77
198,212	63,49
198,424	24,58
198,636	-43,01
198,847	2,05
199,059	0
199,271	-14,34
199,483	18,43
199,695	2,05
199,906	0
200,118	10,24
200,33	98,3
200,542	311,29
200,753	-14,34
200,965	59,39
201,177	-16,38
201,389	81,92
201,6	-63,49
201,812	-18,43
202,024	34,82
202,235	10,24
202,447	-30,72
202,659	69,63
202,871	55,3
203,082	-24,58
203,294	-49,15
203,506	-30,72
203,717	83,97
203,929	16,38
204,141	-34,82
204,352	65,54
204,564	-8,19
204,775	-8,19
204,987	133,12
205,199	79,87
205,41	55,3
205,622	12,29
205,833	71,68
206,045	-38,91
206,257	-14,34
206,468	-49,15
206,68	-6,14
206,891	75,77
207,103	-6,14
207,314	30,72
207,526	51,2
207,737	-51,2
207,949	0
208,16	86,01
208,372	24,58
208,583	26,62
208,795	-22,53
209,006	34,82
209,218	-24,58
209,429	-102,4
209,641	16,38
209,852	-47,1
210,064	51,2
210,275	-8,19
210,487	63,49
210,698	14,34
210,909	34,82
211,121	34,82
211,332	57,34
211,544	45,06
211,755	30,72
211,966	36,86
212,178	-40,96
212,389	75,77
212,6	30,72
212,812	102,4
213,023	22,53
213,234	32,77
213,446	65,54
213,657	-61,44
213,868	45,06
214,08	112,64
214,291	51,2
214,502	57,34
214,714	-32,77
214,925	40,96
215,136	59,39
215,347	-22,53
215,559	-28,67
215,77	-24,58
215,981	94,21
216,192	-26,62
216,404	-55,3
216,615	55,3
216,826	65,54
217,037	24,58
217,249	18,43
217,46	81,92
217,671	0
217,882	8,19
218,093	-34,82
218,304	34,82
218,516	22,53
218,727	2,05
218,938	-51,2
219,149	8,19
219,36	-18,43
219,571	47,1
219,782	-14,34
219,993	88,06
220,205	67,58
220,416	110,59
220,627	28,67
220,838	59,39
221,049	147,45
221,26	83,97
221,471	10,24
221,682	53,25
221,893	-6,14
222,104	-45,06
222,315	-53,25
222,526	-24,58
222,737	43,01
222,948	-47,1
223,159	-10,24
223,37	77,82
223,581	47,1
223,792	32,77
224,003	12,29
224,214	-49,15
224,425	28,67
224,636	-10,24
224,847	106,49
225,058	18,43
225,269	4,1
225,48	-2,05
225,691	-28,67
225,902	45,06
226,112	-22,53
226,323	-63,49
226,534	-8,19
226,745	-55,3
226,956	6,14
227,167	49,15
227,378	-6,14
227,589	-2,05
227,799	118,78
228,01	67,58
228,221	22,53
228,432	-16,38
228,643	-34,82
228,853	32,77
229,064	4,1
229,275	51,2
229,486	2,05
229,697	-79,87
229,907	-2,05
230,118	34,82
230,329	14,34
230,54	-47,1
230,75	36,86
230,961	51,2
231,172	-14,34
231,383	18,43
231,593	51,2
231,804	30,72
232,015	40,96
232,225	65,54
232,436	0
232,647	100,35
232,857	57,34
233,068	-8,19
233,279	16,38
233,489	30,72
233,7	22,53
233,91	30,72
234,121	34,82
234,332	2,05
234,542	-2,05
234,753	14,34
234,964	67,58
235,174	-26,62
235,385	34,82
235,595	-45,06
235,806	43,01
236,016	53,25
236,227	-32,77
236,437	-26,62
236,648	2,05
236,858	26,62
237,069	10,24
237,279	-38,91
237,49	-18,43
237,7	10,24
237,911	30,72
238,121	-79,87
238,332	-4,1
238,542	34,82
238,753	-10,24
238,963	-71,68
239,174	-6,14
239,384	0
239,595	16,38
239,805	-24,58
240,015	22,53
240,226	-16,38
240,436	28,67
240,647	-63,49
240,857	6,14
241,067	75,77
241,278	139,26
241,488	26,62
241,698	38,91
241,909	-6,14
242,119	-8,19
242,329	71,68
242,54	-24,58
242,75	-18,43
242,96	-30,72
243,171	26,62
243,381	71,68
243,591	-47,1
243,801	40,96
244,012	51,2
244,222	18,43
244,432	0
244,642	-28,67
244,853	-30,72
245,063	20,48
245,273	55,3
245,483	32,77
245,694	-61,44
245,904	14,34
246,114	73,73
246,324	26,62
246,534	67,58
246,744	-79,87
246,955	-22,53
247,165	34,82
247,375	157,69
247,585	59,39
247,795	59,39
248,005	30,72
248,215	12,29
248,425	10,24
248,636	145,41
248,846	-10,24
249,056	0
249,266	-79,87
249,476	-55,3
249,686	20,48
249,896	18,43
250,106	-24,58
250,316	22,53
250,526	34,82
250,736	2,05
250,946	86,01
251,156	75,77
251,366	-38,91
251,576	40,96
251,786	73,73
251,996	-6,14
252,206	-18,43
252,416	-12,29
252,626	18,43
252,836	-51,2
253,046	10,24
253,256	59,39
253,466	83,97
253,676	-4,1
253,885	-14,34
254,095	-40,96
254,305	2,05
254,515	-24,58
254,725	-49,15
254,935	-20,48
255,145	67,58
255,355	6,14
255,564	-8,19
255,774	-14,34
255,984	51,2
256,194	-55,3
256,404	45,06
256,614	98,3
256,823	75,77
257,033	90,11
257,243	51,2
257,453	75,77
257,662	-10,24
257,872	26,62
258,082	16,38
258,292	-55,3
258,501	110,59
258,711	108,54
258,921	63,49
259,131	-47,1
259,34	-24,58
259,55	51,2
259,76	18,43
259,969	-51,2
260,179	-14,34
260,389	-45,06
260,598	30,72
260,808	32,77
261,018	26,62
261,227	40,96
261,437	-8,19
261,647	38,91
261,856	18,43
262,066	94,21
262,275	40,96
262,485	2,05
262,694	34,82
262,904	26,62
263,114	-16,38
263,323	-18,43
263,533	88,06
263,742	-28,67
263,952	8,19
264,161	-24,58
264,371	-65,53
264,58	71,68
264,79	40,96
264,999	28,67
265,209	77,82
265,418	26,62
265,628	34,82
265,837	-14,34
266,047	83,97
266,256	124,93
266,466	10,24
266,675	51,2
266,884	34,82
267,094	4,1
267,303	118,78
267,513	-45,06
267,722	90,11
267,931	10,24
268,141	-45,06
268,35	-4,1
268,559	108,54
268,769	67,58
268,978	2,05
269,187	-24,58
269,397	30,72
269,606	-26,62
269,815	2,05
270,025	-8,19
270,234	83,97
270,443	-14,34
270,653	2,05
270,862	36,86
271,071	43,01
271,28	-38,91
271,49	73,73
271,699	-77,82
271,908	40,96
272,117	2,05
272,327	6,14
272,536	34,82
272,745	-2,05
272,954	-40,96
273,163	38,91
273,372	92,16
273,582	-61,44
273,791	18,43
274	55,3
274,209	-40,96
274,418	-6,14
274,627	122,88
274,836	12,29
275,046	49,15
275,255	-6,14
275,464	24,58
275,673	-14,34
275,882	32,77
276,091	49,15
276,3	75,77
276,509	6,14
276,718	26,62
276,927	16,38
277,136	38,91
277,345	24,58
277,554	-57,34
277,763	92,16
277,972	24,58
278,181	40,96
278,39	-47,1
278,599	-12,29
278,808	18,43
279,017	28,67
279,226	-88,06
279,435	-12,29
279,644	-18,43
279,853	110,59
280,062	112,64
280,271	-6,14
280,48	0
280,688	16,38
280,897	34,82
281,106	-43,01
281,315	26,62
281,524	2,05
281,733	-22,53
281,942	43,01
282,151	43,01
282,359	59,39
282,568	10,24
282,777	0
282,986	10,24
283,195	81,92
283,403	67,58
283,612	-63,49
283,821	-14,34
284,03	43,01
284,238	57,34
284,447	10,24
284,656	10,24
284,865	10,24
285,073	-34,82
285,282	10,24
285,491	-88,06
285,699	-6,14
285,908	40,96
286,117	75,77
286,325	-14,34
286,534	108,54
286,743	22,53
286,951	10,24
287,16	69,63
287,369	34,82
287,577	79,87
287,786	-18,43
287,995	-63,49
288,203	-83,97
288,412	92,16
288,62	59,39
288,829	4,1
289,037	6,14
289,246	43,01
289,455	-73,73
289,663	83,97
289,872	155,65
290,08	2,05
290,289	122,88
290,497	-43,01
290,706	65,54
290,914	26,62
291,123	-61,44
291,331	28,67
291,54	124,93
291,748	110,59
291,957	10,24
292,165	51,2
292,373	10,24
292,582	49,15
292,79	-2,05
292,999	96,25
293,207	24,58
293,415	34,82
293,624	-30,72
293,832	12,29
294,041	10,24
294,249	18,43
294,457	22,53
294,666	92,16
294,874	-71,68
295,082	47,1
295,291	51,2
295,499	-2,05
295,707	-6,14
295,915	-34,82
296,124	75,77
296,332	38,91
296,54	34,82
296,749	10,24
296,957	10,24
297,165	-24,58
297,373	-14,34
297,581	32,77
297,79	26,62
297,998	2,05
298,206	-67,58
298,414	-10,24
298,622	18,43
298,831	43,01
299,039	6,14
299,247	51,2
299,455	2,05
299,663	73,73
299,871	20,48
300,08	40,96
300,288	10,24
300,496	24,58
300,704	-34,82
300,912	16,38
301,12	-26,62
301,328	6,14
301,536	16,38
301,744	-77,82
301,952	26,62
302,16	-38,91
302,368	-26,62
302,576	26,62
302,784	65,54
302,992	-90,11
303,2	22,53
303,408	-22,53
303,616	22,53
303,824	114,69
304,032	32,77
304,24	81,92
304,448	83,97
304,656	-40,96
304,864	47,1
305,072	4,1
305,28	18,43
305,488	-6,14
305,696	67,58
305,904	-40,96
306,111	-59,39
306,319	26,62
306,527	43,01
306,735	65,54
306,943	108,54
307,151	10,24
307,359	-36,86
307,566	83,97
307,774	32,77
307,982	77,82
308,19	-92,16
308,398	16,38
308,605	63,49
308,813	-49,15
309,021	-22,53
309,229	47,1
309,436	55,3
309,644	-51,2
309,852	-16,38
310,06	112,64
310,267	38,91
310,475	-88,06
310,683	90,11
310,89	65,54
311,098	94,21
311,306	-34,82
311,513	24,58
311,721	-69,63
311,929	-2,05
312,136	112,64
312,344	2,05
312,552	40,96
312,759	-10,24
312,967	-6,14
313,174	51,2
313,382	67,58
313,589	75,77
313,797	65,54
314,005	2,05
314,212	40,96
314,42	-40,96
314,627	6,14
314,835	-40,96
315,042	40,96
315,25	-16,38
315,457	-12,29
315,665	-94,21
315,872	69,63
316,08	61,44
316,287	-2,05
316,495	210,94
316,702	-63,49
316,909	-34,82
317,117	16,38
317,324	40,96
317,532	69,63
317,739	67,58
317,946	10,24
318,154	-10,24
318,361	49,15
318,569	81,92
318,776	-45,06
318,983	-14,34
319,191	38,91
319,398	36,86
319,605	59,39
319,813	-28,67
320,02	-137,21
320,227	47,1
320,434	12,29
320,642	47,1
320,849	92,16
321,056	67,58
321,264	98,3
321,471	8,19
321,678	34,82
321,885	-10,24
322,092	22,53
322,3	-57,34
322,507	-12,29
322,714	108,54
322,921	16,38
323,128	-18,43
323,336	0
323,543	141,31
323,75	-36,86
323,957	18,43
324,164	-12,29
324,371	67,58
324,578	-43,01
324,786	34,82
324,993	63,49
325,2	24,58
325,407	-43,01
325,614	38,91
325,821	75,77
326,028	129,02
326,235	24,58
326,442	57,34
326,649	57,34
326,856	-14,34
327,063	8,19
327,27	-2,05
327,477	2,05
327,684	-34,82
327,891	-22,53
328,098	81,92
328,305	51,2
328,512	-34,82
328,719	26,62
328,926	96,25
329,133	38,91
329,34	157,69
329,546	-8,19
329,753	-2,05
329,96	-28,67
330,167	0
330,374	32,77
330,581	112,64
330,788	-67,58
330,995	16,38
331,201	26,62
331,408	2,05
331,615	67,58
331,822	24,58
332,029	-4,1
332,235	47,1
332,442	-22,53
332,649	-2,05
332,856	-18,43
333,062	43,01
333,269	18,43
333,476	55,3
333,683	2,05
333,889	26,62
334,096	10,24
334,303	-14,34
334,509	-40,96
334,716	112,64
334,923	49,15
335,129	26,62
335,336	38,91
335,543	-18,43
335,749	24,58
335,956	83,97
336,163	-63,49
336,369	-18,43
336,576	-18,43
336,782	-40,96
336,989	-55,3
337,196	2,05
337,402	-22,53
337,609	47,1
337,815	-38,91
338,022	81,92
338,228	51,2
338,435	131,07
338,641	26,62
338,848	18,43
339,054	75,77
339,261	-4,1
339,467	-6,14
339,674	43,01
339,88	67,58
340,087	-22,53
340,293	8,19
340,5	26,62
340,706	-16,38
340,912	0
341,119	-45,06
341,325	-14,34
341,532	-32,77
341,738	57,34
341,944	49,15
342,151	43,01
342,357	-8,19
342,563	67,58
342,77	-63,49
342,976	-16,38
343,182	63,49
343,389	-22,53
343,595	-55,3
343,801	-32,77
344,007	26,62
344,214	-73,73
344,42	-55,3
344,626	6,14
344,832	16,38
345,039	6,14
345,245	-6,14
345,451	-16,38
345,657	16,38
345,864	16,38
346,07	-20,48
346,276	45,06
346,482	83,97
346,688	30,72
346,894	-8,19
347,1	65,54
347,307	-14,34
347,513	71,68
347,719	-4,1
347,925	75,77
348,131	-63,49
348,337	65,54
348,543	-38,91
348,749	-49,15
348,955	-6,14
349,161	-38,91
349,367	16,38
349,573	79,87
349,779	-2,05
349,985	2,05
350,191	57,34
350,397	-2,05
350,603	2,05
350,809	-6,14
351,015	34,82
351,221	49,15
351,427	-2,05
351,633	43,01
351,839	59,39
352,045	43,01
352,251	79,87
352,457	51,2
352,663	36,86
352,869	-4,1
353,075	51,2
353,28	-14,34
353,486	30,72
353,692	-20,48
353,898	20,48
354,104	-2,05
354,31	108,54
354,515	-4,1
354,721	53,25
354,927	45,06
355,133	34,82
355,339	59,39
355,544	51,2
355,75	36,86
355,956	32,77
356,162	22,53
356,367	14,34
356,573	-10,24
356,779	-2,05
356,984	34,82
357,19	36,86
357,396	14,34
357,602	67,58
357,807	2,05
358,013	32,77
358,218	22,53
358,424	-16,38
358,63	-53,25
358,835	53,25
359,041	43,01
359,247	-32,77
359,452	-34,82
359,658	6,14
359,863	40,96
360,069	38,91
360,274	43,01
360,48	124,93
360,685	51,2
360,891	106,49
361,097	-18,43
361,302	59,39
361,508	63,49
361,713	24,58
361,918	108,54
362,124	-6,14
362,329	-32,77
362,535	8,19
362,74	-40,96
362,946	59,39
363,151	-43,01
363,357	-16,38
363,562	10,24
363,767	-26,62
363,973	49,15
364,178	-88,06
364,383	-53,25
364,589	-36,86
364,794	-55,3
365	2,05
365,205	36,86
365,41	-40,96
365,615	47,1
365,821	-22,53
366,026	96,25
366,231	28,67
366,437	67,58
366,642	-4,1
366,847	26,62
367,052	57,34
367,258	-43,01
367,463	63,49
367,668	-34,82
367,873	120,83
368,078	96,25
368,284	-83,97
368,489	-16,38
368,694	49,15
368,899	40,96
369,104	112,64
369,309	38,91
369,515	14,34
369,72	34,82
369,925	-14,34
370,13	104,45
370,335	30,72
370,54	-20,48
370,745	-14,34
370,95	2,05
371,155	86,01
371,36	49,15
371,565	71,68
371,77	79,87
371,975	-18,43
372,18	73,73
372,385	18,43
372,59	18,43
372,795	16,38
373	24,58
373,205	79,87
373,41	61,44
373,615	-10,24
373,82	-57,34
374,025	32,77
374,23	-10,24
374,435	59,39
374,64	32,77
374,845	59,39
375,05	83,97
375,254	63,49
375,459	22,53
375,664	49,15
375,869	55,3
376,074	20,48
376,279	43,01
376,483	-2,05
376,688	2,05
376,893	47,1
377,098	16,38
377,303	47,1
377,507	0
377,712	172,03
377,917	43,01
378,122	34,82
378,326	67,58
378,531	38,91
378,736	-14,34
378,94	-38,91
379,145	16,38
379,35	88,06
379,554	0
379,759	-6,14
379,964	14,34
380,168	32,77
380,373	88,06
380,578	124,93
380,782	71,68
380,987	38,91
381,191	40,96
381,396	67,58
381,601	79,87
381,805	34,82
382,01	116,73
382,214	71,68
382,419	98,3
382,623	51,2
382,828	77,82
383,032	0
383,237	-65,53
383,441	65,54
383,646	43,01
383,85	-55,3
384,055	10,24
384,259	36,86
384,464	2,05
384,668	-4,1
384,872	22,53
385,077	26,62
385,281	67,58
385,486	-63,49
385,69	26,62
385,894	47,1
386,099	51,2
386,303	6,14
386,507	124,93
386,712	65,54
386,916	8,19
387,12	55,3
387,325	83,97
387,529	59,39
387,733	12,29
387,937	51,2
388,142	40,96
388,346	34,82
388,55	55,3
388,754	49,15
388,959	20,48
389,163	92,16
389,367	59,39
389,571	61,44
389,775	96,25
389,98	65,54
390,184	24,58
390,388	57,34
390,592	75,77
390,796	75,77
391	57,34
391,204	51,2
391,409	47,1
391,613	14,34
391,817	-16,38
392,021	114,69
392,225	55,3
392,429	-67,58
392,633	51,2
392,837	8,19
393,041	43,01
393,245	122,88
393,449	67,58
393,653	-6,14
393,857	151,55
394,061	86,01
394,265	34,82
394,469	104,45
394,673	116,73
394,877	59,39
395,081	147,45
395,285	157,69
395,489	22,53
395,693	88,06
395,896	90,11
396,1	106,49
396,304	71,68
396,508	16,38
396,712	94,21
396,916	124,93
397,12	71,68
397,323	137,21
397,527	141,31
397,731	204,8
397,935	133,12
398,139	161,79
398,342	182,27
398,546	157,69
398,75	98,3
398,954	172,03
399,157	188,41
399,361	204,8
399,565	178,17
399,769	190,46
399,972	165,89
400,176	108,54
400,38	196,61
400,583	190,46
400,787	266,24
400,991	262,14
401,194	147,45
401,398	247,8
401,601	161,79
401,805	215,04
402,009	206,84
402,212	219,13
402,416	313,34
402,619	174,08
402,823	264,19
403,026	133,12
403,23	202,75
403,433	288,76
403,637	157,69
403,841	290,81
404,044	274,43
404,247	202,75
404,451	227,32
404,654	174,08
404,858	186,37
405,061	194,56
405,265	241,66
405,468	266,24
405,672	288,76
405,875	165,89
406,078	174,08
406,282	174,08
406,485	239,61
406,689	342,01
406,892	296,96
407,095	219,13
407,299	256
407,502	290,81
407,705	256
407,909	272,38
408,112	294,91
408,315	370,68
408,518	307,2
408,722	210,94
408,925	256
409,128	286,72
409,331	266,24
409,535	329,72
409,738	253,95
409,941	376,83
410,144	233,47
410,347	301,05
410,551	278,52
410,754	233,47
410,957	296,96
411,16	296,96
411,363	362,49
411,566	333,82
411,769	284,67
411,973	385,02
412,176	358,39
412,379	358,39
412,582	296,96
412,785	335,87
412,988	247,8
413,191	378,87
413,394	296,96
413,597	305,15
413,8	280,57
414,003	329,72
414,206	342,01
414,409	319,48
414,612	272,38
414,815	401,4
415,018	352,25
415,221	311,29
415,424	329,72
415,627	305,15
415,83	268,28
416,033	239,61
416,235	331,77
416,438	327,68
416,641	378,87
416,844	303,1
417,047	196,61
417,25	284,67
417,453	382,97
417,655	286,72
417,858	313,34
418,061	284,67
418,264	315,39
418,467	337,91
418,669	364,54
418,872	399,35
419,075	317,44
419,278	305,15
419,48	319,48
419,683	305,15
419,886	239,61
420,089	272,38
420,291	450,55
420,494	276,48
420,697	245,76
420,899	380,92
421,102	237,56
421,305	342,01
421,507	342,01
421,71	290,81
421,912	413,69
422,115	305,15
422,318	260,09
422,52	301,05
422,723	342,01
422,925	319,48
423,128	403,45
423,33	286,72
423,533	321,53
423,735	329,72
423,938	319,48
424,14	346,11
424,343	366,59
424,545	415,74
424,748	305,15
424,95	288,76
425,153	296,96
425,355	294,91
425,558	407,55
425,76	342,01
425,962	358,39
426,165	253,95
426,367	325,63
426,57	323,58
426,772	276,48
426,974	364,54
427,177	256
427,379	309,24
427,581	425,98
427,784	292,86
427,986	299
428,188	346,11
428,39	247,8
428,593	395,26
428,795	329,72
428,997	305,15
429,2	237,56
429,402	362,49
429,604	264,19
429,806	288,76
430,008	319,48
430,211	327,68
430,413	253,95
430,615	278,52
430,817	321,53
431,019	307,2
431,221	395,26
431,423	231,42
431,626	335,87
431,828	288,76
432,03	296,96
432,232	417,79
432,434	411,64
432,636	399,35
432,838	350,2
433,04	385,02
433,242	399,35
433,444	256
433,646	407,55
433,848	342,01
434,05	438,27
434,252	362,49
434,454	372,73
434,656	358,39
434,858	364,54
435,06	346,11
435,262	376,83
435,464	452,6
435,666	405,5
435,868	395,26
436,07	391,16
436,271	362,49
436,473	362,49
436,675	425,98
436,877	411,64
437,079	335,87
437,281	364,54
437,482	464,89
437,684	370,68
437,886	411,64
438,088	456,7
438,29	387,07
438,491	434,17
438,693	288,76
438,895	342,01
439,097	434,17
439,298	382,97
439,5	346,11
439,702	411,64
439,903	354,3
440,105	434,17
440,307	501,75
440,508	456,7
440,71	473,08
440,912	501,75
441,113	430,07
441,315	378,87
441,517	458,75
441,718	419,83
441,92	477,18
442,121	411,64
442,323	468,98
442,524	368,63
442,726	466,94
442,928	389,11
443,129	468,98
443,331	411,64
443,532	528,38
443,734	403,45
443,935	497,66
444,136	374,78
444,338	452,6
444,539	423,93
444,741	493,56
444,942	446,46
445,144	413,69
445,345	473,08
445,546	428,03
445,748	409,59
445,949	354,3
446,151	376,83
446,352	501,75
446,553	542,71
446,755	477,18
446,956	419,83
447,157	450,55
447,359	505,85
447,56	487,42
447,761	413,69
447,962	491,51
448,164	493,56
448,365	485,37
448,566	425,98
448,767	411,64
448,969	606,2
449,17	483,32
449,371	438,27
449,572	485,37
449,773	493,56
449,974	579,58
450,176	419,83
450,377	428,03
450,578	511,99
450,779	434,17
450,98	452,6
451,181	499,7
451,382	468,98
451,583	567,29
451,784	526,33
451,986	532,47
452,187	509,94
452,388	481,27
452,589	436,22
452,79	419,83
452,991	452,6
453,192	503,8
453,393	428,03
453,594	518,14
453,795	489,46
453,995	495,61
454,196	464,89
454,397	526,33
454,598	411,64
454,799	448,51
455	509,94
455,201	407,55
455,402	573,43
455,603	411,64
455,804	600,05
456,004	516,09
456,205	509,94
456,406	548,86
456,607	485,37
456,808	567,29
457,008	391,16
457,209	456,7
457,41	518,14
457,611	507,9
457,811	667,64
458,012	473,08
458,213	499,7
458,414	448,51
458,614	473,08
458,815	511,99
459,016	587,77
459,216	579,58
459,417	518,14
459,618	524,28
459,818	522,23
460,019	518,14
460,22	468,98
460,42	534,52
460,621	561,14
460,821	514,04
461,022	542,71
461,223	536,57
461,423	505,85
461,624	522,23
461,824	509,94
462,025	524,28
462,225	559,1
462,426	624,63
462,626	583,67
462,827	569,34
463,027	518,14
463,228	501,75
463,428	501,75
463,628	542,71
463,829	612,34
464,029	458,75
464,23	534,52
464,43	567,29
464,63	618,49
464,831	491,51
465,031	616,44
465,231	530,42
465,432	622,58
465,632	632,82
465,832	524,28
466,033	532,47
466,233	462,84
466,433	630,77
466,634	598,01
466,834	661,49
467,034	612,34
467,234	671,73
467,435	626,68
467,635	624,63
467,835	475,13
468,035	579,58
468,235	614,39
468,436	565,24
468,636	509,94
468,836	550,9
469,036	722,93
469,236	673,78
469,436	636,92
469,636	657,4
469,836	616,44
470,037	608,25
470,237	647,16
470,437	583,67
470,637	641,01
470,837	645,11
471,037	712,69
471,237	661,49
471,437	628,73
471,637	641,01
471,837	718,84
472,037	663,54
472,237	780,28
472,437	598,01
472,637	804,85
472,837	696,31
473,036	657,4
473,236	724,98
473,436	729,08
473,636	681,97
473,836	526,33
474,036	796,66
474,236	735,22
474,436	608,25
474,635	712,69
474,835	704,5
475,035	870,39
475,235	757,75
475,435	735,22
475,634	698,36
475,834	751,6
476,034	782,32
476,234	702,45
476,433	780,28
476,633	964,59
476,833	774,13
477,033	761,84
477,232	733,17
477,432	817,14
477,632	827,38
477,831	796,66
478,031	849,91
478,231	901,11
478,43	870,39
478,63	907,25
478,829	770,04
479,029	915,44
479,229	811
479,428	858,1
479,628	821,24
479,827	827,38
480,027	825,33
480,226	1001,46
480,426	968,69
480,625	972,79
480,825	868,34
481,024	890,87
481,224	972,79
481,423	952,31
481,623	1046,51
481,822	884,72
482,021	1017,84
482,221	970,74
482,42	1107,95
482,62	952,31
482,819	1048,56
483,018	1028,08
483,218	1046,51
483,417	942,07
483,616	1001,46
483,816	1003,5
484,015	1013,74
484,214	952,31
484,414	1095,66
484,613	1003,5
484,812	970,74
485,011	905,2
485,211	968,69
485,41	1044,46
485,609	905,2
485,808	933,87
486,008	886,77
486,207	976,88
486,406	903,15
486,605	899,06
486,804	1064,94
487,003	997,36
487,203	1048,56
487,402	1001,46
487,601	1032,18
487,8	985,07
487,999	980,98
488,198	1023,98
488,397	1038,32
488,596	974,83
488,795	1021,94
488,994	1122,29
489,193	1054,7
489,392	1177,58
489,591	1007,6
489,79	1058,8
489,989	1058,8
490,188	1116,14
490,387	1058,8
490,586	1105,9
490,785	1038,32
490,984	1083,38
491,183	1054,7
491,382	1087,47
491,581	1091,57
491,779	1064,94
491,978	1110
492,177	1132,53
492,376	1208,3
492,575	1198,06
492,774	1095,66
492,972	1124,33
493,171	1034,22
493,37	1165,29
493,569	1171,44
493,768	1144,81
493,966	1069,04
494,165	1196,01
494,364	1263,6
494,563	1187,82
494,761	1140,72
494,96	1193,97
495,159	1132,53
495,357	1066,99
495,556	1130,48
495,755	1056,75
495,953	1204,21
496,152	1189,87
496,35	1103,86
496,549	1189,87
496,748	1222,64
496,946	1200,11
497,145	1079,28
497,343	1101,81
497,542	1083,38
497,74	1140,72
497,939	1064,94
498,137	1140,72
498,336	1128,43
498,534	1259,5
498,733	1032,18
498,931	1069,04
499,13	1099,76
499,328	1062,9
499,527	1146,86
499,725	1021,94
499,924	1056,75
500,122	968,69
500,32	1073,14
500,519	1124,33
500,717	1146,86
500,915	1101,81
501,114	1122,29
501,312	1064,94
501,51	950,26
501,709	1071,09
501,907	1173,49
502,105	976,88
502,304	1060,85
502,502	948,21
502,7	1062,9
502,898	997,36
503,097	1099,76
503,295	1038,32
503,493	1091,57
503,691	1087,47
503,889	1062,9
504,088	1046,51
504,286	1075,18
504,484	1075,18
504,682	1073,14
504,88	1122,29
505,078	1091,57
505,276	1157,1
505,474	1107,95
505,672	1085,42
505,871	1069,04
506,069	1185,77
506,267	980,98
506,465	1116,14
506,663	1050,61
506,861	1023,98
507,059	1107,95
507,257	1120,24
507,455	1165,29
507,653	952,31
507,851	1095,66
508,049	1097,71
508,246	1163,25
508,444	1110
508,642	1148,91
508,84	1085,42
509,038	1083,38
509,236	1222,64
509,434	1048,56
509,632	1071,09
509,829	1130,48
510,027	1175,53
510,225	1087,47
510,423	1206,25
510,621	1064,94
510,818	1173,49
511,016	1120,24
511,214	1198,06
511,412	1146,86
511,609	1105,9
511,807	1218,54
512,005	1095,66
512,203	1157,1
512,4	1157,1
512,598	1091,57
512,796	1087,47
512,993	1122,29
513,191	1130,48
513,389	1206,25
513,586	1124,33
513,784	1153,01
513,981	1175,53
514,179	1169,39
514,377	1087,47
514,574	1271,79
514,772	1066,99
514,969	1116,14
515,167	1056,75
515,364	1189,87
515,562	1050,61
515,759	1269,74
515,957	1019,89
516,154	1007,6
516,352	1099,76
516,549	1093,62
516,746	1005,55
516,944	1036,27
517,141	1081,33
517,339	1009,65
517,536	1122,29
517,733	1044,46
517,931	1110
518,128	1112,05
518,325	1171,44
518,523	1144,81
518,72	1124,33
518,917	1118,19
519,115	1226,73
519,312	1163,25
519,509	1153,01
519,707	1083,38
519,904	1255,4
520,101	1239,02
520,298	1214,45
520,495	1255,4
520,693	1230,83
520,89	1247,21
521,087	1218,54
521,284	1263,6
521,481	1187,82
521,678	1163,25
521,876	1193,97
522,073	1220,59
522,27	1218,54
522,467	1318,89
522,664	1273,84
522,861	1198,06
523,058	1216,49
523,255	1218,54
523,452	1214,45
523,649	1179,63
523,846	1214,45
524,043	1196,01
524,24	1198,06
524,437	1253,36
524,634	1185,77
524,831	1239,02
525,028	1251,31
525,225	1075,18
525,422	1202,16
525,619	1196,01
525,816	1165,29
526,013	1349,61
526,209	1124,33
526,406	1144,81
526,603	1173,49
526,8	1148,91
526,997	1173,49
527,194	1181,68
527,39	1224,69
527,587	1279,98
527,784	1302,51
527,981	1155,05
528,177	1161,2
528,374	1312,75
528,571	1337,32
528,768	1247,21
528,964	1206,25
529,161	1318,89
529,358	1308,65
529,554	1150,96
529,751	1110
529,948	1103,86
530,144	1296,36
530,341	1224,69
530,537	1320,94
530,734	1255,4
530,931	1263,6
531,127	1284,08
531,324	1148,91
531,52	1247,21
531,717	1167,34
531,913	1230,83
532,11	1148,91
532,306	1325,04
532,503	1189,87
532,699	1228,78
532,896	1236,97
533,092	1282,03
533,289	1222,64
533,485	1828,84
533,682	1247,21
533,878	1142,77
534,074	1243,12
534,271	1284,08
534,467	1269,74
534,664	1230,83
534,86	1236,97
535,056	1267,69
535,253	1253,36
535,449	1165,29
535,645	1275,88
535,841	1222,64
536,038	1220,59
536,234	1189,87
536,43	1220,59
536,626	1329,13
536,823	1148,91
537,019	1189,87
537,215	1173,49
537,411	1243,12
537,607	1236,97
537,804	1144,81
538	1177,58
538,196	1214,45
538,392	1081,33
538,588	1245,17
538,784	1148,91
538,98	1146,86
539,176	1165,29
539,373	1155,05
539,569	1134,57
539,765	1124,33
539,961	1087,47
540,157	1177,58
540,353	1105,9
540,549	1173,49
540,745	1218,54
540,941	1140,72
541,137	1093,62
541,333	1191,92
541,528	1103,86
541,724	1198,06
541,92	1130,48
542,116	1144,81
542,312	1116,14
542,508	1148,91
542,704	1245,17
542,9	1234,93
543,096	1138,67
543,291	1261,55
543,487	1206,25
543,683	1214,45
543,879	1206,25
544,075	1181,68
544,27	1083,38
544,466	1103,86
544,662	1253,36
544,858	1183,73
545,053	1204,21
545,249	1191,92
545,445	1189,87
545,64	1189,87
545,836	1120,24
546,032	1071,09
546,227	1130,48
546,423	1200,11
546,619	1042,42
546,814	1148,91
547,01	1202,16
547,205	1089,52
547,401	1155,05
547,597	1148,91
547,792	1091,57
547,988	1173,49
548,183	1120,24
548,379	1220,59
548,574	1191,92
548,77	1040,37
548,965	1124,33
549,161	1087,47
549,356	1206,25
549,552	1165,29
549,747	1107,95
549,942	1206,25
550,138	1159,15
550,333	1101,81
550,529	1132,53
550,724	1083,38
550,919	1138,67
551,115	1136,62
551,31	1269,74
551,505	1179,63
551,701	1126,38
551,896	1099,76
552,091	1265,64
552,287	1179,63
552,482	1136,62
552,677	1130,48
552,872	1030,13
553,067	1181,68
553,263	1193,97
553,458	1146,86
553,653	1200,11
553,848	1097,71
554,043	1087,47
554,239	1083,38
554,434	1132,53
554,629	1083,38
554,824	1157,1
555,019	1079,28
555,214	1132,53
555,409	1089,52
555,604	1159,15
555,799	1206,25
555,994	1011,7
556,189	1030,13
556,384	1101,81
556,579	1140,72
556,774	1120,24
556,969	1056,75
557,164	1007,6
557,359	1058,8
557,554	1099,76
557,749	1118,19
557,944	1066,99
558,139	1083,38
558,334	993,26
558,529	1073,14
558,724	1058,8
558,918	1087,47
559,113	991,22
559,308	1099,76
559,503	1134,57
559,698	1060,85
559,893	1165,29
560,087	1124,33
560,282	1021,94
560,477	1087,47
560,672	1052,66
560,866	1075,18
561,061	1087,47
561,256	1077,23
561,45	1064,94
561,645	1075,18
561,84	1148,91
562,034	1026,03
562,229	1083,38
562,424	1050,61
562,618	1073,14
562,813	1005,55
563,008	993,26
563,202	999,41
563,397	1107,95
563,591	1089,52
563,786	1001,46
563,98	978,93
564,175	956,4
564,369	1075,18
564,564	1073,14
564,758	1138,67
564,953	1083,38
565,147	1011,7
565,342	1015,79
565,536	989,17
565,731	1163,25
565,925	1107,95
566,119	1026,03
566,314	1138,67
566,508	985,07
566,703	1103,86
566,897	1046,51
567,091	993,26
567,286	1009,65
567,48	1189,87
567,674	1093,62
567,868	976,88
568,063	1116,14
568,257	1007,6
568,451	1124,33
568,646	1042,42
568,84	1095,66
569,034	999,41
569,228	952,31
569,422	1034,22
569,616	1118,19
569,811	1095,66
570,005	1015,79
570,199	1003,5
570,393	1009,65
570,587	1140,72
570,781	1040,37
570,975	1026,03
571,169	1107,95
571,364	1091,57
571,558	1085,42
571,752	1122,29
571,946	1089,52
572,14	1144,81
572,334	1155,05
572,528	1034,22
572,722	1064,94
572,916	1189,87
573,109	1048,56
573,303	1069,04
573,497	1079,28
573,691	1120,24
573,885	1138,67
574,079	1124,33
574,273	1026,03
574,467	1112,05
574,661	1042,42
574,854	1101,81
575,048	1163,25
575,242	1079,28
575,436	1124,33
575,63	1120,24
575,823	1136,62
576,017	1107,95
576,211	1064,94
576,405	1185,77
576,598	1167,34
576,792	1122,29
576,986	1120,24
577,18	1206,25
577,373	1138,67
577,567	1134,57
577,761	1077,23
577,954	1187,82
578,148	1228,78
578,341	1243,12
578,535	1251,31
578,729	1189,87
578,922	1236,97
579,116	1140,72
579,309	1269,74
579,503	1320,94
579,696	1226,73
579,89	1302,51
580,083	1273,84
580,277	1214,45
580,47	1279,98
580,664	1314,8
580,857	1288,17
581,051	1257,45
581,244	1290,22
581,437	1306,6
581,631	1435,63
581,824	1380,33
582,018	1361,9
582,211	1259,5
582,404	1288,17
582,598	1417,19
582,791	1466,35
582,984	1515,5
583,178	1474,54
583,371	1482,73
583,564	1529,83
583,757	1490,92
583,951	1513,45
584,144	1478,63
584,337	1613,8
584,53	1509,35
584,723	1546,22
584,917	1576,94
585,11	1656,81
585,303	1656,81
585,496	1583,08
585,689	1578,98
585,882	1583,08
586,075	1628,14
586,268	1511,4
586,462	1720,29
586,655	1648,61
586,848	1843,17
587,041	1845,22
587,234	1984,48
587,427	2369,5
587,62	2410,46
587,813	2541,53
588,006	2541,53
588,199	2500,57
588,392	2519
588,585	2381,79
588,777	2375,64
588,97	2326,49
589,163	2346,97
589,356	2267,1
589,549	2013,15
589,742	2099,17
589,935	2150,37
590,128	2136,03
590,32	2213,85
590,513	2246,62
590,706	2095,07
590,899	2086,88
591,092	2187,23
591,284	2295,77
591,477	2166,75
591,67	2314,2
591,863	2213,85
592,055	2146,27
592,248	2320,35
592,441	2340,83
592,633	2246,62
592,826	2404,32
593,019	2263,01
593,211	2334,68
593,404	2367,45
593,596	2615,26
593,789	2557,91
593,982	2672,6
594,174	2643,93
594,367	2678,74
594,559	2869,2
594,752	2775
594,944	2869,2
595,137	2983,89
595,329	2775
595,522	2963,41
595,714	3061,71
595,907	2883,54
596,099	2973,65
596,292	3033,04
596,484	3139,54
596,676	3160,02
596,869	3168,21
597,061	3399,63
597,253	3381,2
597,446	3418,06
597,638	3653,58
597,83	3454,92
598,023	3729,35
598,215	3674,06
598,407	3770,31
598,6	3639,24
598,792	3825,61
598,984	3841,99
599,176	4036,55
599,369	4065,22
599,561	4048,83
599,753	4138,94
599,945	4417,47
600,137	4241,34
600,329	4210,62
600,522	4155,33
600,714	4401,08
600,906	4517,82
601,098	4710,33
601,29	4726,71
601,482	4773,82
601,674	4827,06
601,866	4923,32
602,058	5072,82
602,25	4976,56
602,442	5201,84
602,634	5402,54
602,826	5455,79
603,018	5345,2
603,21	5605,29
603,402	5695,4
603,594	5883,81
603,786	5951,4
603,978	5924,77
604,17	6145,95
604,362	6363,04
604,554	6375,33
604,745	6330,27
604,937	6449,05
605,129	6557,6
605,321	6729,63
605,513	6879,13
605,704	7018,39
605,896	7147,41
606,088	7174,03
606,28	7485,33
606,471	7503,76
606,663	7585,68
606,855	7784,33
607,047	8079,24
607,238	8177,54
607,43	8083,33
607,622	8372,1
607,813	8611,71
608,005	8568,7
608,197	8699,77
608,388	8855,42
608,58	8791,93
608,771	9355,12
608,963	9422,7
609,154	9543,53
609,346	9783,15
609,537	9813,87
609,729	9934,7
609,921	10319,71
610,112	10377,06
610,303	10465,12
610,495	10674,01
610,686	10755,93
610,878	11036,5
611,069	11136,85
611,261	11337,56
611,452	12021,58
611,643	11812,68
611,835	12242,76
612,026	12310,34
612,217	12605,25
612,409	13012,79
612,6	13033,27
612,791	13350,71
612,983	13557,55
613,174	14159,66
613,365	14747,42
613,557	14962,46
613,748	14821,15
613,939	15101,72
614,13	15572,75
614,321	15507,22
614,513	16033,55
614,704	16207,62
614,895	16639,75
615,086	17100,54
615,277	17465,08
615,468	17950,45
615,659	18392,81
615,851	18460,39
616,042	18857,7
616,233	19554,01
616,424	20287,18
616,615	20397,77
616,806	20926,14
616,997	20942,53
617,188	21313,21
617,379	22503,08
617,57	22853,28
617,761	23445,15
617,952	23365,28
618,143	24151,7
618,334	24727,17
618,524	25347,71
618,715	25716,34
618,906	26549,87
619,097	26871,4
619,288	27485,79
619,479	28565,07
619,67	28626,51
619,86	29025,86
620,051	29779,51
620,242	30617,13
620,433	30762,54
620,624	31473,18
620,814	32232,98
621,005	32429,59
621,196	33117,7
621,386	34217,46
621,577	34840,04
621,768	35108,33
621,958	35790,3
622,149	36767,18
622,34	37387,72
622,53	37881,28
622,721	38428,09
622,912	39849,38
623,102	40000,93
623,293	40844,69
623,483	40998,29
623,674	41463,18
623,864	43054,45
624,055	43492,71
624,245	44250,46
624,436	44721,49
624,626	45690,18
624,817	45782,34
625,007	46230,85
625,198	47220,02
625,388	47140,14
625,579	47674,66
625,769	48917,78
625,959	49544,46
626,15	49865,99
626,34	50621,69
626,531	51219,7
626,721	52104,42
626,911	52204,77
627,101	53439,7
627,292	53374,16
627,482	54348,99
627,672	55076,02
627,863	56036,52
628,053	56427,68
628,243	57627,79
628,433	57728,14
628,623	58619,01
628,814	58946,68
629,004	59675,76
629,194	60038,25
629,384	60617,83
629,574	60814,43
629,764	61932,62
629,955	61992,01
630,145	62735,43
630,335	62936,13
630,525	63501,37
630,715	63640,63
630,905	64252,97
631,095	64240,68
631,285	64445,48
631,475	64445,48
631,665	64445,48
631,855	64445,48
632,045	64445,48
632,235	64445,48
632,425	64445,48
632,615	64445,48
632,805	64445,48
632,994	64445,48
633,184	64445,48
633,374	64445,48
633,564	64445,48
633,754	64445,48
633,944	64445,48
634,133	64445,48
634,323	64445,48
634,513	64445,48
634,703	64445,48
634,893	64445,48
635,082	64445,48
635,272	64445,48
635,462	64445,48
635,651	64445,48
635,841	62911,55
636,031	59968,62
636,221	56921,24
636,41	55155,89
636,6	53105,88
636,789	51025,14
636,979	49349,9
637,169	48207,14
637,358	46630,2
637,548	45618,5
637,737	44062,05
637,927	42902,9
638,116	41504,13
638,306	40187,29
638,495	38798,77
638,685	36373,97
638,874	35182,06
639,064	33615,36
639,253	32488,98
639,443	31045,16
639,632	30004,79
639,822	27934,29
640,011	27233,89
640,2	25822,84
640,39	24970,88
640,579	23434,91
640,768	22492,84
640,958	21479,1
641,147	20418,25
641,336	19562,2
641,526	18538,21
641,715	17741,55
641,904	17239,8
642,093	15953,68
642,283	15466,26
642,472	14667,55
642,661	14098,22
642,85	13655,86
643,039	12803,9
643,228	12566,34
643,418	12054,34
643,607	11405,14
643,796	11153,24
643,985	10538,85
644,174	10278,76
644,363	9723,76
644,552	9275,25
644,741	9080,69
644,93	8841,08
645,119	8370,05
645,308	8204,16
645,497	7802,76
645,686	7542,67
645,875	7231,38
646,064	7059,35
646,253	6959
646,442	6870,94
646,631	6512,54
646,82	6215,59
647,009	6287,26
647,198	5943,21
647,387	5687,21
647,575	5447,6
647,764	5822,38
647,953	5244,85
648,142	5330,86
648,331	5040,05
648,519	4843,45
648,708	4630,46
648,897	4630,46
649,086	4521,91
649,274	4483
649,463	4233,15
649,652	4267,97
649,84	4167,62
650,029	4007,87
650,218	3860,42
650,406	3803,08
650,595	3618,76
650,784	3598,28
650,972	3409,87
651,161	3284,94
651,349	3260,37
651,538	3260,37
651,726	3065,81
651,915	2983,89
652,104	2942,93
652,292	2824,15
652,481	2756,57
652,669	2770,9
652,857	2576,34
653,046	2582,49
653,234	2504,67
653,423	2332,64
653,611	2334,68
653,8	2117,6
653,988	2271,2
654,176	2084,83
654,365	2164,7
654,553	2017,25
654,741	1966,05
654,93	1861,6
655,118	1863,65
655,306	1826,79
655,494	1730,53
655,683	1771,49
655,871	1701,86
656,059	1732,58
656,247	1570,79
656,436	1673,19
656,624	1583,08
656,812	1447,91
657	1533,93
657,188	1546,22
657,376	1548,26
657,564	1529,83
657,753	1443,82
657,941	1353,71
658,129	1345,52
658,317	1251,31
658,505	1271,79
658,693	1220,59
658,881	1239,02
659,069	1218,54
659,257	1140,72
659,445	1265,64
659,633	1214,45
659,821	1271,79
660,009	1165,29
660,197	1146,86
660,384	1013,74
660,572	1249,26
660,76	1165,29
660,948	995,31
661,136	976,88
661,324	1038,32
661,512	1013,74
661,699	966,64
661,887	1042,42
662,075	1023,98
662,263	993,26
662,451	856,05
662,638	948,21
662,826	956,4
663,014	985,07
663,201	925,68
663,389	927,73
663,577	952,31
663,764	903,15
663,952	749,56
664,14	894,96
664,327	847,86
664,515	884,72
664,702	870,39
664,89	878,58
665,078	815,09
665,265	710,65
665,453	811
665,64	813,04
665,828	739,32
666,015	751,6
666,203	727,03
666,39	739,32
666,578	731,12
666,765	720,89
666,952	774,13
667,14	747,51
667,327	700,41
667,515	671,73
667,702	657,4
667,889	671,73
668,077	649,21
668,264	739,32
668,451	714,74
668,638	598,01
668,826	673,78
669,013	712,69
669,2	647,16
669,388	641,01
669,575	681,97
669,762	638,97
669,949	673,78
670,136	1304,56
670,323	622,58
670,511	614,39
670,698	575,48
670,885	632,82
671,072	667,64
671,259	569,34
671,446	600,05
671,633	559,1
671,82	505,85
672,007	473,08
672,194	600,05
672,381	575,48
672,568	649,21
672,755	575,48
672,942	667,64
673,129	589,82
673,316	573,43
673,503	532,47
673,69	567,29
673,877	540,66
674,064	555
674,251	608,25
674,437	591,86
674,624	620,53
674,811	669,69
674,998	573,43
675,185	567,29
675,372	649,21
675,558	524,28
675,745	606,2
675,932	579,58
676,119	436,22
676,305	495,61
676,492	534,52
676,679	520,18
676,865	493,56
677,052	573,43
677,239	507,9
677,425	444,41
677,612	565,24
677,798	489,46
677,985	468,98
678,172	530,42
678,358	489,46
678,545	540,66
678,731	526,33
678,918	444,41
679,104	475,13
679,291	720,89
679,477	546,81
679,664	526,33
679,85	462,84
680,036	534,52
680,223	514,04
680,409	430,07
680,596	493,56
680,782	591,86
680,968	567,29
681,155	499,7
681,341	509,94
681,527	522,23
681,714	444,41
681,9	468,98
682,086	497,66
682,272	501,75
682,459	395,26
682,645	544,76
682,831	468,98
683,017	583,67
683,204	516,09
683,39	501,75
683,576	526,33
683,762	387,07
683,948	466,94
684,134	346,11
684,32	466,94
684,506	452,6
684,693	477,18
684,879	393,21
685,065	387,07
685,251	348,15
685,437	264,19
685,623	270,33
685,809	350,2
685,995	333,82
686,181	380,92
686,366	325,63
686,552	311,29
686,738	335,87
686,924	321,53
687,11	305,15
687,296	337,91
687,482	288,76
687,668	286,72
687,853	200,7
688,039	256
688,225	335,87
688,411	378,87
688,597	311,29
688,782	325,63
688,968	309,24
689,154	288,76
689,34	362,49
689,525	362,49
689,711	370,68
689,897	403,45
690,082	292,86
690,268	370,68
690,454	428,03
690,639	370,68
690,825	382,97
691,01	380,92
691,196	352,25
691,381	321,53
691,567	288,76
691,753	342,01
691,938	372,73
692,124	288,76
692,309	313,34
692,494	319,48
692,68	303,1
692,865	305,15
693,051	399,35
693,236	434,17
693,422	421,88
693,607	315,39
693,792	370,68
693,978	296,96
694,163	325,63
694,348	329,72
694,534	450,55
694,719	382,97
694,904	358,39
695,089	378,87
695,275	374,78
695,46	247,8
695,645	270,33
695,83	292,86
696,016	376,83
696,201	323,58
696,386	296,96
696,571	374,78
696,756	376,83
696,941	307,2
697,126	178,17
697,311	370,68
697,497	358,39
697,682	303,1
697,867	333,82
698,052	315,39
698,237	284,67
698,422	288,76
698,607	296,96
698,792	335,87
698,977	303,1
699,162	268,28
699,347	405,5
699,531	315,39
699,716	301,05
699,901	362,49
700,086	321,53
700,271	307,2
700,456	307,2
700,641	288,76
700,825	264,19
701,01	376,83
701,195	370,68
701,38	311,29
701,565	266,24
701,749	321,53
701,934	321,53
702,119	346,11
702,303	286,72
702,488	321,53
702,673	360,44
702,857	327,68
703,042	231,42
703,227	350,2
703,411	321,53
703,596	387,07
703,78	350,2
703,965	372,73
704,15	307,2
704,334	368,63
704,519	313,34
704,703	245,76
704,888	231,42
705,072	327,68
705,257	333,82
705,441	327,68
705,625	366,59
705,81	337,91
705,994	333,82
706,179	315,39
706,363	223,23
706,547	325,63
706,732	376,83
706,916	362,49
707,1	196,61
707,285	323,58
707,469	358,39
707,653	368,63
707,837	327,68
708,022	280,57
708,206	370,68
708,39	272,38
708,574	309,24
708,759	372,73
708,943	321,53
709,127	305,15
709,311	266,24
709,495	296,96
709,679	305,15
709,863	266,24
710,047	391,16
710,231	288,76
710,415	323,58
710,6	331,77
710,784	251,9
710,968	362,49
711,152	251,9
711,336	280,57
711,519	344,06
711,703	274,43
711,887	327,68
712,071	294,91
712,255	243,71
712,439	411,64
712,623	317,44
712,807	305,15
712,991	268,28
713,174	223,23
713,358	317,44
713,542	335,87
713,726	290,81
713,91	346,11
714,093	313,34
714,277	262,14
714,461	319,48
714,645	276,48
714,828	210,94
715,012	305,15
715,196	139,26
715,379	260,09
715,563	215,04
715,747	227,32
715,93	223,23
716,114	202,75
716,297	174,08
716,481	192,51
716,664	137,21
716,848	178,17
717,031	149,5
717,215	149,5
717,398	172,03
717,582	116,73
717,765	161,79
717,949	75,77
718,132	174,08
718,316	106,49
718,499	155,65
718,682	241,66
718,866	241,66
719,049	251,9
719,233	247,8
719,416	258,04
719,599	258,04
719,782	198,65
719,966	157,69
720,149	167,93
720,332	247,8
720,515	151,55
720,699	251,9
720,882	233,47
721,065	180,22
721,248	202,75
721,431	288,76
721,615	133,12
721,798	243,71
721,981	198,65
722,164	129,02
722,347	163,84
722,53	200,7
722,713	129,02
722,896	157,69
723,079	172,03
723,262	159,74
723,445	307,2
723,628	237,56
723,811	192,51
723,994	178,17
724,177	165,89
724,36	190,46
724,543	229,37
724,726	196,61
724,909	188,41
725,091	139,26
725,274	139,26
725,457	139,26
725,64	102,4
725,823	116,73
726,006	88,06
726,188	208,89
726,371	210,94
726,554	210,94
726,737	155,65
726,919	124,93
727,102	270,33
727,285	192,51
727,467	186,37
727,65	215,04
727,833	198,65
728,015	151,55
728,198	122,88
728,38	100,35
728,563	135,17
728,746	38,91
728,928	155,65
729,111	186,37
729,293	174,08
729,476	172,03
729,658	114,69
729,841	137,21
730,023	292,86
730,205	237,56
730,388	178,17
730,57	243,71
730,753	122,88
730,935	169,98
731,117	280,57
731,3	169,98
731,482	204,8
731,664	303,1
731,847	223,23
732,029	262,14
732,211	202,75
732,394	174,08
732,576	172,03
732,758	305,15
732,94	245,76
733,122	206,84
733,305	368,63
733,487	204,8
733,669	256
733,851	198,65
734,033	256
734,215	196,61
734,397	227,32
734,58	184,32
734,762	198,65
734,944	235,52
735,126	178,17
735,308	317,44
735,49	208,89
735,672	159,74
735,854	167,93
736,036	286,72
736,218	296,96
736,399	272,38
736,581	270,33
736,763	210,94
736,945	219,13
737,127	223,23
737,309	270,33
737,491	231,42
737,672	196,61
737,854	235,52
738,036	237,56
738,218	253,95
738,4	129,02
738,581	237,56
738,763	108,54
738,945	264,19
739,127	292,86
739,308	235,52
739,49	149,5
739,672	268,28
739,853	215,04
740,035	198,65
740,216	194,56
740,398	288,76
740,58	165,89
740,761	243,71
740,943	208,89
741,124	245,76
741,306	188,41
741,487	186,37
741,669	161,79
741,85	239,61
742,032	188,41
742,213	217,08
742,394	174,08
742,576	280,57
742,757	342,01
742,939	299
743,12	176,13
743,301	180,22
743,483	153,6
743,664	237,56
743,845	161,79
744,027	231,42
744,208	188,41
744,389	215,04
744,57	178,17
744,752	274,43
744,933	157,69
745,114	219,13
745,295	198,65
745,476	264,19
745,657	294,91
745,839	147,45
746,02	270,33
746,201	260,09
746,382	239,61
746,563	262,14
746,744	204,8
746,925	202,75
747,106	190,46
747,287	196,61
747,468	239,61
747,649	219,13
747,83	206,84
748,011	223,23
748,192	301,05
748,373	118,78
748,554	206,84
748,735	151,55
748,915	215,04
749,096	208,89
749,277	245,76
749,458	219,13
749,639	215,04
749,82	239,61
750	186,37
750,181	188,41
750,362	223,23
750,543	249,85
750,723	206,84
750,904	206,84
751,085	190,46
751,265	190,46
751,446	249,85
751,627	225,28
751,807	215,04
751,988	229,37
752,169	276,48
752,349	178,17
752,53	253,95
752,71	122,88
752,891	260,09
753,071	247,8
753,252	129,02
753,432	215,04
753,613	278,52
753,793	202,75
753,974	251,9
754,154	188,41
754,334	227,32
754,515	131,07
754,695	245,76
754,876	247,8
755,056	290,81
755,236	217,08
755,417	172,03
755,597	282,62
755,777	192,51
755,957	194,56
756,138	194,56
756,318	272,38
756,498	247,8
756,678	270,33
756,859	178,17
757,039	190,46
757,219	206,84
757,399	260,09
757,579	202,75
757,759	96,25
757,939	96,25
758,119	141,31
758,3	223,23
758,48	86,01
758,66	67,58
758,84	6,14
759,02	88,06
759,2	-14,34
759,38	55,3
759,56	53,25
759,74	2,05
759,919	-6,14
760,099	98,3
760,279	77,82
760,459	110,59
760,639	75,77
760,819	120,83
760,999	-6,14
761,178	61,44
761,358	55,3
761,538	47,1
761,718	108,54
761,898	43,01
762,077	45,06
762,257	45,06
762,437	116,73
762,616	94,21
762,796	110,59
762,976	143,36
763,155	43,01
763,335	51,2
763,515	112,64
763,694	100,35
763,874	92,16
764,053	69,63
764,233	147,45
764,413	57,34
764,592	59,39
764,772	221,18
764,951	133,12
765,131	165,89
765,31	143,36
765,489	122,88
765,669	122,88
765,848	212,99
766,028	133,12
766,207	172,03
766,386	153,6
766,566	102,4
766,745	155,65
766,924	215,04
767,104	196,61
767,283	153,6
767,462	212,99
767,642	149,5
767,821	182,27
768	135,17
768,179	247,8
768,358	153,6
768,538	219,13
768,717	137,21
768,896	167,93
769,075	196,61
769,254	129,02
769,433	204,8
769,612	215,04
769,791	30,72
769,97	155,65
770,149	227,32
770,328	118,78
770,507	178,17
770,686	149,5
770,865	133,12
771,044	200,7
771,223	143,36
771,402	237,56
771,581	188,41
771,76	122,88
771,939	98,3
772,118	194,56
772,297	120,83
772,475	256
772,654	190,46
772,833	260,09
773,012	256
773,191	100,35
773,369	129,02
773,548	231,42
773,727	139,26
773,906	305,15
774,084	188,41
774,263	153,6
774,442	212,99
774,62	157,69
774,799	104,45
774,977	135,17
775,156	124,93
775,335	206,84
775,513	149,5
775,692	139,26
775,87	296,96
776,049	133,12
776,227	145,41
776,406	182,27
776,584	116,73
776,763	129,02
776,941	104,45
777,119	53,25
777,298	98,3
777,476	90,11
777,655	163,84
777,833	133,12
778,011	174,08
778,19	206,84
778,368	229,37
778,546	59,39
778,725	202,75
778,903	92,16
779,081	110,59
779,259	124,93
779,437	155,65
779,616	126,97
779,794	182,27
779,972	186,37
780,15	131,07
780,328	108,54
780,506	159,74
780,685	90,11
780,863	188,41
781,041	88,06
781,219	75,77
781,397	124,93
781,575	100,35
781,753	137,21
781,931	67,58
782,109	147,45
782,287	124,93
782,465	100,35
782,643	112,64
782,82	112,64
782,998	198,65
783,176	139,26
783,354	22,53
783,532	139,26
783,71	100,35
783,888	141,31
784,065	34,82
784,243	151,55
784,421	81,92
784,599	112,64
784,776	131,07
784,954	90,11
785,132	116,73
785,31	51,2
785,487	100,35
785,665	141,31
785,842	141,31
786,02	202,75
786,198	57,34
786,375	90,11
786,553	43,01
786,73	118,78
786,908	129,02
787,085	98,3
787,263	-24,58
787,44	53,25
787,618	120,83
787,795	75,77
787,973	20,48
788,15	133,12
788,328	69,63
788,505	114,69
788,682	141,31
788,86	92,16
789,037	120,83
789,215	124,93
789,392	24,58
789,569	100,35
789,746	110,59
789,924	90,11
790,101	106,49
790,278	188,41
790,455	45,06
790,633	59,39
790,81	75,77
790,987	12,29
791,164	133,12
791,341	149,5
791,518	88,06
791,695	92,16
791,873	79,87
792,05	88,06
792,227	40,96
792,404	73,73
792,581	59,39
792,758	129,02
792,935	12,29
793,112	96,25
793,289	88,06
793,466	112,64
793,643	18,43
793,82	43,01
793,996	131,07
794,173	120,83
794,35	-34,82
794,527	143,36
794,704	73,73
794,881	4,1
795,057	161,79
795,234	-2,05
795,411	79,87
795,588	34,82
795,765	45,06
795,941	133,12
796,118	-2,05
796,295	129,02
796,471	43,01
796,648	55,3
796,825	126,97
797,001	77,82
797,178	149,5
797,354	86,01
797,531	116,73
797,708	88,06
797,884	116,73
798,061	22,53
798,237	43,01
798,414	47,1
798,59	49,15
798,767	88,06
798,943	10,24
799,119	129,02
799,296	94,21
799,472	8,19
799,649	24,58
799,825	116,73
800,001	38,91
800,178	2,05
800,354	88,06
800,53	90,11
800,707	16,38
800,883	55,3
801,059	-32,77
801,235	141,31
801,411	57,34
801,588	71,68
801,764	167,93
801,94	0
802,116	30,72
802,292	100,35
802,468	67,58
802,645	108,54
802,821	98,3
802,997	71,68
803,173	4,1
803,349	106,49
803,525	16,38
803,701	122,88
803,877	61,44
804,053	106,49
804,229	32,77
804,405	98,3
804,581	63,49
804,756	45,06
804,932	38,91
805,108	34,82
805,284	59,39
805,46	55,3
805,636	57,34
805,812	133,12
805,987	110,59
806,163	83,97
806,339	167,93
806,515	12,29
806,69	96,25
806,866	43,01
807,042	45,06
807,217	40,96
807,393	100,35
807,569	12,29
807,744	96,25
807,92	59,39
808,096	43,01
808,271	83,97
808,447	10,24
808,622	53,25
808,798	55,3
808,973	53,25
809,149	-38,91
809,324	34,82
809,5	0
809,675	49,15
809,851	96,25
810,026	92,16
810,201	75,77
810,377	24,58
810,552	18,43
810,728	57,34
810,903	137,21
811,078	12,29
811,253	116,73
811,429	-8,19
811,604	20,48
811,779	106,49
811,955	59,39
812,13	-2,05
812,305	83,97
812,48	-26,62
812,655	43,01
812,83	147,45
813,006	67,58
813,181	43,01
813,356	18,43
813,531	49,15
813,706	32,77
813,881	12,29
814,056	-38,91
814,231	43,01
814,406	8,19
814,581	22,53
814,756	100,35
814,931	40,96
815,106	-16,38
815,281	81,92
815,456	59,39
815,631	12,29
815,805	57,34
815,98	-8,19
816,155	53,25
816,33	65,54
816,505	-34,82
816,68	124,93
816,854	65,54
817,029	8,19
817,204	14,34
817,379	-8,19
817,553	-2,05
817,728	30,72
817,903	26,62
818,077	90,11
818,252	51,2
818,427	116,73
818,601	120,83
818,776	65,54
818,95	34,82
819,125	86,01
819,299	57,34
819,474	-16,38
819,648	-10,24
819,823	32,77
819,997	38,91
820,172	67,58
820,346	43,01
820,521	16,38
820,695	-2,05
820,87	92,16
821,044	36,86
821,218	114,69
821,393	79,87
821,567	-20,48
821,741	4,1
821,916	-6,14
822,09	32,77
822,264	79,87
822,438	14,34
822,613	-6,14
822,787	108,54
822,961	10,24
823,135	83,97
823,309	45,06
823,483	34,82
823,658	139,26
823,832	45,06
824,006	77,82
824,18	16,38
824,354	40,96
824,528	40,96
824,702	75,77
824,876	59,39
825,05	77,82
825,224	75,77
825,398	92,16
825,572	40,96
825,746	-61,44
825,92	118,78
826,093	45,06
826,267	118,78
826,441	63,49
826,615	120,83
826,789	129,02
826,963	102,4
827,136	43,01
827,31	-43,01
827,484	51,2
827,658	67,58
827,831	53,25
828,005	-12,29
828,179	59,39
828,353	53,25
828,526	24,58
828,7	43,01
828,873	-38,91
829,047	16,38
829,221	61,44
829,394	26,62
829,568	14,34
829,741	-8,19
829,915	2,05
830,088	26,62
830,262	149,5
830,435	20,48
830,609	24,58
830,782	83,97
830,956	28,67
831,129	96,25
831,302	-4,1
831,476	83,97
831,649	24,58
831,822	77,82
831,996	79,87
832,169	133,12
832,342	0
832,516	114,69
832,689	-55,3
832,862	-28,67
833,035	104,45
833,209	75,77
833,382	-32,77
833,555	-32,77
833,728	-34,82
833,901	-16,38
834,074	61,44
834,247	59,39
834,42	34,82
834,594	51,2
834,767	122,88
834,94	57,34
835,113	16,38
835,286	26,62
835,459	47,1
835,632	-28,67
835,805	83,97
835,977	57,34
836,15	16,38
836,323	-16,38
836,496	75,77
836,669	-18,43
836,842	32,77
837,015	139,26
837,188	59,39
837,36	149,5
837,533	30,72
837,706	-16,38
837,879	96,25
838,051	22,53
838,224	49,15
838,397	2,05
838,569	57,34
838,742	34,82
838,915	98,3
839,087	65,54
839,26	22,53
839,433	40,96
839,605	90,11
839,778	-18,43
839,95	86,01
840,123	6,14
840,295	83,97
840,468	10,24
840,64	2,05
840,813	102,4
840,985	10,24
841,158	75,77
841,33	43,01
841,502	73,73
841,675	6,14
841,847	100,35
842,019	47,1
842,192	59,39
842,364	53,25
842,536	-73,73
842,709	-6,14
842,881	43,01
843,053	32,77
843,225	26,62
843,398	120,83
843,57	43,01
843,742	59,39
843,914	6,14
844,086	67,58
844,258	-2,05
844,43	6,14
844,602	124,93
844,775	-16,38
844,947	43,01
845,119	10,24
845,291	43,01
845,463	124,93
845,635	-26,62
845,807	40,96
845,979	40,96
846,15	-47,1
846,322	59,39
846,494	-22,53
846,666	73,73
846,838	32,77
847,01	81,92
847,182	73,73
847,354	53,25
847,525	100,35
847,697	79,87
847,869	-47,1
848,041	18,43
848,212	65,54
848,384	-51,2
848,556	49,15
848,727	53,25
848,899	-49,15
849,071	59,39
849,242	61,44
849,414	0
849,585	122,88
849,757	40,96
849,929	59,39
850,1	43,01
850,272	98,3
850,443	10,24
850,615	100,35
850,786	24,58
850,958	-18,43
851,129	28,67
851,3	79,87
851,472	59,39
851,643	-38,91
851,815	45,06
851,986	79,87
852,157	24,58
852,329	120,83
852,5	10,24
852,671	145,41
852,842	-2,05
853,014	-2,05
853,185	-30,72
853,356	18,43
853,527	92,16
853,698	-32,77
853,87	22,53
854,041	67,58
854,212	40,96
854,383	-4,1
854,554	-10,24
854,725	116,73
854,896	-4,1
855,067	43,01
855,238	51,2
855,409	-40,96
855,58	36,86
855,751	83,97
855,922	73,73
856,093	161,79
856,264	-8,19
856,435	-22,53
856,606	63,49
856,777	51,2
856,948	-14,34
857,118	-26,62
857,289	20,48
857,46	129,02
857,631	26,62
857,802	88,06
857,972	8,19
858,143	149,5
858,314	-100,35
858,484	0
858,655	26,62
858,826	12,29
858,996	22,53
859,167	43,01
859,338	-6,14
859,508	71,68
859,679	38,91
859,849	79,87
860,02	51,2
860,19	79,87
860,361	86,01
860,531	-40,96
860,702	124,93
860,872	161,79
861,043	32,77
861,213	55,3
861,384	100,35
861,554	51,2
861,724	-8,19
861,895	-30,72
862,065	34,82
862,235	118,78
862,406	65,54
862,576	-6,14
862,746	6,14
862,916	-8,19
863,087	65,54
863,257	8,19
863,427	-10,24
863,597	-10,24
863,767	0
863,937	22,53
864,108	90,11
864,278	51,2
864,448	83,97
864,618	75,77
864,788	-2,05
864,958	83,97
865,128	-2,05
865,298	34,82
865,468	34,82
865,638	-16,38
865,808	4,1
865,978	59,39
866,148	-14,34
866,318	26,62
866,487	18,43
866,657	-10,24
866,827	81,92
866,997	34,82
867,167	2,05
867,337	-40,96
867,506	-18,43
867,676	10,24
867,846	-38,91
868,016	129,02
868,185	-38,91
868,355	75,77
868,525	71,68
868,694	43,01
868,864	83,97
869,034	45,06
869,203	0
869,373	-16,38
869,542	116,73
869,712	-2,05
869,881	69,63
870,051	-24,58
870,22	16,38
870,39	-53,25
870,559	18,43
870,729	-24,58
870,898	71,68
871,068	67,58
871,237	36,86
871,406	-16,38
871,576	69,63
871,745	10,24
871,914	-86,01
872,084	90,11
872,253	38,91
872,422	-14,34
872,591	43,01
872,761	-22,53
872,93	307,2
873,099	-30,72
873,268	22,53
873,437	10,24
873,607	-51,2
873,776	-6,14
873,945	40,96
874,114	26,62
874,283	-14,34
874,452	45,06
874,621	55,3
874,79	81,92
874,959	61,44
875,128	6,14
875,297	14,34
875,466	94,21
875,635	65,54
875,804	22,53
875,973	-38,91
876,142	67,58
876,31	-32,77
876,479	6,14
876,648	43,01
876,817	12,29
876,986	73,73
877,155	30,72
877,323	-34,82
877,492	36,86
877,661	108,54
877,829	30,72
877,998	-8,19
878,167	26,62
878,335	2,05
878,504	-94,21
878,673	-34,82
878,841	-4,1
879,01	-8,19
879,178	45,06
879,347	71,68
879,515	4,1
879,684	81,92
879,852	-6,14
880,021	-18,43
880,189	26,62
880,358	-30,72
880,526	106,49
880,695	-106,49
880,863	47,1
881,031	10,24
881,2	10,24
881,368	-26,62
881,536	112,64
881,705	77,82
881,873	24,58
882,041	49,15
882,21	-18,43
882,378	43,01
882,546	-12,29
882,714	-8,19
882,882	-49,15
883,05	-14,34
883,219	-22,53
883,387	147,45
883,555	49,15
883,723	-63,49
883,891	32,77
884,059	-47,1
884,227	47,1
884,395	-16,38
884,563	-6,14
884,731	-8,19
884,899	71,68
885,067	22,53
885,235	32,77
885,403	79,87
885,571	34,82
885,739	-55,3
