Data from USB4F035431__11__14-17-21-297.txt Node

Date: Wed Feb 12 14:17:21 CET 2025
User: Versuch 234
Spectrometer: USB4F03543
Trigger mode: 4
Integration Time (sec): 1,000000E-1
Scans to average: 1
Electric dark correction enabled: true
Nonlinearity correction enabled: false
Boxcar width: 0
XAxis mode: Wavelengths
Number of Pixels in Spectrum: 3648
>>>>>Begin Spectral Data<<<<<
179,969	-161,79
180,181	-161,79
180,394	-161,79
180,606	-180,22
180,819	-253,95
181,031	0
181,243	40,96
181,456	-6,14
181,668	55,3
181,88	26,62
182,093	0
182,305	-55,3
182,518	-63,49
182,73	-6,14
182,942	-8,19
183,155	-22,53
183,367	38,91
183,579	-30,72
183,791	26,62
184,004	-90,11
184,216	-4,1
184,428	10,24
184,641	-40,96
184,853	-24,58
185,065	16,38
185,277	6,14
185,49	83,97
185,702	-34,82
185,914	-30,72
186,126	-16,38
186,338	-12,29
186,551	8,19
186,763	-6,14
186,975	-16,38
187,187	-24,58
187,399	-24,58
187,612	-22,53
187,824	-8,19
188,036	-14,34
188,248	16,38
188,46	-6,14
188,672	-22,53
188,885	-40,96
189,097	71,68
189,309	-63,49
189,521	-53,25
189,733	-49,15
189,945	-14,34
190,157	0
190,369	-47,1
190,581	-75,77
190,794	36,86
191,006	-22,53
191,218	30,72
191,43	67,58
191,642	-88,06
191,854	-57,34
192,066	6,14
192,278	18,43
192,49	-69,63
192,702	40,96
192,914	2,05
193,126	10,24
193,338	-6,14
193,55	-55,3
193,762	-16,38
193,974	-77,82
194,186	-71,68
194,398	-22,53
194,61	6,14
194,822	34,82
195,034	26,62
195,246	26,62
195,457	-38,91
195,669	24,58
195,881	16,38
196,093	12,29
196,305	16,38
196,517	-71,68
196,729	-55,3
196,941	-73,73
197,153	26,62
197,365	71,68
197,576	-110,59
197,788	10,24
198	10,24
198,212	6,14
198,424	34,82
198,636	-30,72
198,847	-86,01
199,059	-43,01
199,271	-47,1
199,483	-28,67
199,695	14,34
199,906	57,34
200,118	36,86
200,33	30,72
200,542	313,34
200,753	-96,25
200,965	-32,77
201,177	-8,19
201,389	-38,91
201,6	-26,62
201,812	-22,53
202,024	34,82
202,235	-6,14
202,447	65,53
202,659	0
202,871	-71,68
203,082	-59,39
203,294	-40,96
203,506	2,05
203,717	-2,05
203,929	65,53
204,141	-45,06
204,352	18,43
204,564	-18,43
204,775	-32,77
204,987	8,19
205,199	34,82
205,41	6,14
205,622	34,82
205,833	-92,16
206,045	16,38
206,257	-2,05
206,468	0
206,68	-14,34
206,891	34,82
207,103	-22,53
207,314	-131,07
207,526	18,43
207,737	-51,2
207,949	10,24
208,16	14,34
208,372	40,96
208,583	8,19
208,795	-55,3
209,006	-30,72
209,218	-14,34
209,429	-137,21
209,641	24,58
209,852	-63,49
210,064	10,24
210,275	-104,45
210,487	51,2
210,698	53,25
210,909	83,97
211,121	67,58
211,332	40,96
211,544	83,97
211,755	55,3
211,966	100,35
212,178	-14,34
212,389	34,82
212,6	-55,3
212,812	83,97
213,023	18,43
213,234	-40,96
213,446	16,38
213,657	-38,91
213,868	55,3
214,08	51,2
214,291	59,39
214,502	8,19
214,714	-59,39
214,925	-28,67
215,136	-22,53
215,347	16,38
215,559	16,38
215,77	-92,16
215,981	24,58
216,192	-38,91
216,404	45,06
216,615	22,53
216,826	18,43
217,037	-16,38
217,249	94,21
217,46	112,64
217,671	-12,29
217,882	-47,1
218,093	40,96
218,304	40,96
218,516	20,48
218,727	-32,77
218,938	-47,1
219,149	81,92
219,36	47,1
219,571	30,72
219,782	-47,1
219,993	-12,29
220,205	-24,58
220,416	-6,14
220,627	49,15
220,838	-14,34
221,049	77,82
221,26	53,25
221,471	-102,4
221,682	28,67
221,893	-14,34
222,104	-45,06
222,315	-98,3
222,526	-88,06
222,737	-6,14
222,948	-75,77
223,159	-18,43
223,37	-51,2
223,581	-43,01
223,792	-18,43
224,003	-51,2
224,214	-43,01
224,425	40,96
224,636	-90,11
224,847	0
225,058	6,14
225,269	0
225,48	-63,49
225,691	-4,1
225,902	-14,34
226,112	-36,86
226,323	-22,53
226,534	28,67
226,745	-49,15
226,956	-8,19
227,167	-116,73
227,378	-63,49
227,589	-26,62
227,799	0
228,01	43,01
228,221	-96,25
228,432	26,62
228,643	-18,43
228,853	-86,01
229,064	-61,44
229,275	-67,58
229,486	-24,58
229,697	-106,49
229,907	-61,44
230,118	26,62
230,329	-63,49
230,54	-16,38
230,75	32,77
230,961	-22,53
231,172	-75,77
231,383	-122,88
231,593	-110,59
231,804	0
232,015	-24,58
232,225	0
232,436	-63,49
232,647	-79,87
232,857	8,19
233,068	-34,82
233,279	38,91
233,489	-14,34
233,7	-38,91
233,91	51,2
234,121	-16,38
234,332	-57,34
234,542	-20,48
234,753	-47,1
234,964	38,91
235,174	-30,72
235,385	-8,19
235,595	-14,34
235,806	71,68
236,016	-65,54
236,227	-47,1
236,437	-67,58
236,648	-51,2
236,858	-24,58
237,069	-38,91
237,279	-2,05
237,49	-10,24
237,7	2,05
237,911	-30,72
238,121	-59,39
238,332	-22,53
238,542	12,29
238,753	10,24
238,963	-16,38
239,174	14,34
239,384	-40,96
239,595	8,19
239,805	-51,2
240,015	-65,54
240,226	-32,77
240,436	-106,49
240,647	47,1
240,857	-14,34
241,067	-6,14
241,278	100,35
241,488	-45,06
241,698	-6,14
241,909	-55,3
242,119	38,91
242,329	69,63
242,54	-36,86
242,75	-4,1
242,96	-38,91
243,171	18,43
243,381	34,82
243,591	38,91
243,801	14,34
244,012	45,06
244,222	-22,53
244,432	-114,69
244,642	-2,05
244,853	-79,87
245,063	18,43
245,273	22,53
245,483	32,77
245,694	-71,68
245,904	-2,05
246,114	20,48
246,324	-14,34
246,534	75,77
246,744	-61,44
246,955	-106,49
247,165	53,25
247,375	92,16
247,585	-22,53
247,795	-83,97
248,005	-36,86
248,215	47,1
248,425	38,91
248,636	116,73
248,846	-26,62
249,056	-12,29
249,266	-34,82
249,476	-43,01
249,686	26,62
249,896	-49,15
250,106	-83,97
250,316	-26,62
250,526	83,97
250,736	-86,01
250,946	59,39
251,156	20,48
251,366	-112,64
251,576	51,2
251,786	45,06
251,996	-34,82
252,206	-10,24
252,416	-2,05
252,626	-81,92
252,836	-47,1
253,046	-30,72
253,256	-26,62
253,466	20,48
253,676	10,24
253,885	-63,49
254,095	-38,91
254,305	51,2
254,515	-6,14
254,725	-20,48
254,935	-30,72
255,145	36,86
255,355	-30,72
255,564	10,24
255,774	-40,96
255,984	22,53
256,194	30,72
256,404	-32,77
256,614	-6,14
256,823	96,25
257,033	-24,58
257,243	79,87
257,453	-22,53
257,662	-40,96
257,872	-43,01
258,082	2,05
258,292	-114,69
258,501	63,49
258,711	96,25
258,921	73,73
259,131	-14,34
259,34	-47,1
259,55	96,25
259,76	40,96
259,969	-6,14
260,179	-141,31
260,389	-38,91
260,598	24,58
260,808	40,96
261,018	40,96
261,227	26,62
261,437	-38,91
261,647	47,1
261,856	-57,34
262,066	-8,19
262,275	83,97
262,485	16,38
262,694	40,96
262,904	26,62
263,114	59,39
263,323	43,01
263,533	-71,68
263,742	-30,72
263,952	-51,2
264,161	-116,73
264,371	-22,53
264,58	-38,91
264,79	-26,62
264,999	22,53
265,209	38,91
265,418	34,82
265,628	-20,48
265,837	59,39
266,047	2,05
266,256	63,49
266,466	-8,19
266,675	0
266,884	-2,05
267,094	-2,05
267,303	36,86
267,513	4,1
267,722	30,72
267,931	-6,14
268,141	36,86
268,35	18,43
268,559	18,43
268,769	30,72
268,978	-51,2
269,187	-16,38
269,397	-55,3
269,606	-133,12
269,815	18,43
270,025	12,29
270,234	16,38
270,443	-30,72
270,653	-6,14
270,862	-26,62
271,071	-14,34
271,28	34,82
271,49	51,2
271,699	-24,58
271,908	14,34
272,117	-63,49
272,327	30,72
272,536	-22,53
272,745	-8,19
272,954	-28,67
273,163	26,62
273,372	73,73
273,582	-63,49
273,791	14,34
274	-34,82
274,209	-51,2
274,418	65,53
274,627	100,35
274,836	-18,43
275,046	10,24
275,255	0
275,464	-10,24
275,673	2,05
275,882	36,86
276,091	-18,43
276,3	0
276,509	-16,38
276,718	-55,3
276,927	-43,01
277,136	-51,2
277,345	14,34
277,554	59,39
277,763	10,24
277,972	-22,53
278,181	94,21
278,39	-12,29
278,599	-40,96
278,808	2,05
279,017	-73,73
279,226	-40,96
279,435	-88,06
279,644	18,43
279,853	24,58
280,062	51,2
280,271	14,34
280,48	30,72
280,688	-30,72
280,897	8,19
281,106	-24,58
281,315	-43,01
281,524	63,49
281,733	-10,24
281,942	-2,05
282,151	-2,05
282,359	28,67
282,568	-18,43
282,777	-10,24
282,986	8,19
283,195	-30,72
283,403	10,24
283,612	18,43
283,821	-28,67
284,03	-57,34
284,238	-2,05
284,447	81,92
284,656	-20,48
284,865	2,05
285,073	12,29
285,282	-2,05
285,491	16,38
285,699	-65,54
285,908	-28,67
286,117	26,62
286,325	0
286,534	45,06
286,743	59,39
286,951	2,05
287,16	38,91
287,369	-22,53
287,577	22,53
287,786	-53,25
287,995	30,72
288,203	-43,01
288,412	-26,62
288,62	0
288,829	-38,91
289,037	-47,1
289,246	10,24
289,455	-67,58
289,663	-45,06
289,872	26,62
290,08	-30,72
290,289	67,58
290,497	-57,34
290,706	-26,62
290,914	-92,16
291,123	-71,68
291,331	-8,19
291,54	141,31
291,748	108,54
291,957	-10,24
292,165	18,43
292,373	-124,93
292,582	55,3
292,79	14,34
292,999	2,05
293,207	-16,38
293,415	-2,05
293,624	-73,73
293,832	59,39
294,041	43,01
294,249	-6,14
294,457	-49,15
294,666	22,53
294,874	-57,34
295,082	18,43
295,291	32,77
295,499	-30,72
295,707	-20,48
295,915	26,62
296,124	51,2
296,332	0
296,54	65,53
296,749	6,14
296,957	24,58
297,165	-55,3
297,373	-49,15
297,581	8,19
297,79	-4,1
297,998	10,24
298,206	-38,91
298,414	-22,53
298,622	22,53
298,831	14,34
299,039	-43,01
299,247	63,49
299,455	6,14
299,663	106,49
299,871	28,67
300,08	2,05
300,288	-8,19
300,496	-4,1
300,704	-30,72
300,912	-24,58
301,12	-12,29
301,328	67,58
301,536	-49,15
301,744	-90,11
301,952	24,58
302,16	-96,25
302,368	-26,62
302,576	-24,58
302,784	-28,67
302,992	-129,02
303,2	-24,58
303,408	-8,19
303,616	83,97
303,824	51,2
304,032	8,19
304,24	-18,43
304,448	-16,38
304,656	2,05
304,864	32,77
305,072	-24,58
305,28	26,62
305,488	20,48
305,696	20,48
305,904	-4,1
306,111	-8,19
306,319	-18,43
306,527	32,77
306,735	43,01
306,943	6,14
307,151	-26,62
307,359	-49,15
307,566	55,3
307,774	55,3
307,982	51,2
308,19	38,91
308,398	-67,58
308,605	-10,24
308,813	-10,24
309,021	-36,86
309,229	-65,54
309,436	-59,39
309,644	18,43
309,852	49,15
310,06	57,34
310,267	51,2
310,475	-81,92
310,683	-30,72
310,89	-59,39
311,098	59,39
311,306	-10,24
311,513	4,1
311,721	-49,15
311,929	2,05
312,136	8,19
312,344	-24,58
312,552	59,39
312,759	10,24
312,967	2,05
313,174	40,96
313,382	-51,2
313,589	-8,19
313,797	34,82
314,005	22,53
314,212	49,15
314,42	18,43
314,627	-22,53
314,835	-32,77
315,042	30,72
315,25	-73,73
315,457	-106,49
315,665	-98,3
315,872	38,91
316,08	38,91
316,287	-59,39
316,495	290,81
316,702	18,43
316,909	-92,16
317,117	34,82
317,324	6,14
317,532	110,59
317,739	-75,77
317,946	-49,15
318,154	0
318,361	-14,34
318,569	2,05
318,776	-63,49
318,983	-71,68
319,191	57,34
319,398	47,1
319,605	-8,19
319,813	-55,3
320,02	-38,91
320,227	38,91
320,434	73,73
320,642	30,72
320,849	57,34
321,056	-2,05
321,264	81,92
321,471	-22,53
321,678	81,92
321,885	-40,96
322,092	106,49
322,3	59,39
322,507	-90,11
322,714	0
322,921	-40,96
323,128	-36,86
323,336	-79,87
323,543	63,49
323,75	-22,53
323,957	-45,06
324,164	8,19
324,371	6,14
324,578	-90,11
324,786	38,91
324,993	24,58
325,2	0
325,407	-71,68
325,614	16,38
325,821	92,16
326,028	67,58
326,235	14,34
326,442	-67,58
326,649	34,82
326,856	75,77
327,063	-22,53
327,27	30,72
327,477	-30,72
327,684	-34,82
327,891	-104,45
328,098	38,91
328,305	-4,1
328,512	16,38
328,719	34,82
328,926	57,34
329,133	2,05
329,34	129,02
329,546	-30,72
329,753	8,19
329,96	-73,73
330,167	65,53
330,374	34,82
330,581	40,96
330,788	-122,88
330,995	-12,29
331,201	-10,24
331,408	-32,77
331,615	30,72
331,822	-116,73
332,029	2,05
332,235	-6,14
332,442	-30,72
332,649	-8,19
332,856	-55,3
333,062	18,43
333,269	-71,68
333,476	26,62
333,683	10,24
333,889	53,25
334,096	-38,91
334,303	-6,14
334,509	-71,68
334,716	-8,19
334,923	34,82
335,129	-90,11
335,336	6,14
335,543	-53,25
335,749	43,01
335,956	20,48
336,163	-34,82
336,369	-20,48
336,576	36,86
336,782	43,01
336,989	-45,06
337,196	20,48
337,402	-32,77
337,609	-32,77
337,815	-20,48
338,022	2,05
338,228	-43,01
338,435	135,17
338,641	65,53
338,848	96,25
339,054	81,92
339,261	10,24
339,467	-81,92
339,674	-4,1
339,88	24,58
340,087	-53,25
340,293	10,24
340,5	8,19
340,706	32,77
340,912	-16,38
341,119	8,19
341,325	-16,38
341,532	28,67
341,738	-6,14
341,944	14,34
342,151	16,38
342,357	24,58
342,563	-6,14
342,77	-36,86
342,976	-26,62
343,182	106,49
343,389	8,19
343,595	-24,58
343,801	-47,1
344,007	47,1
344,214	-14,34
344,42	-6,14
344,626	14,34
344,832	26,62
345,039	18,43
345,245	43,01
345,451	8,19
345,657	40,96
345,864	-73,73
346,07	-75,77
346,276	32,77
346,482	2,05
346,688	108,54
346,894	-55,3
347,1	34,82
347,307	-34,82
347,513	57,34
347,719	8,19
347,925	-38,91
348,131	-12,29
348,337	83,97
348,543	-34,82
348,749	51,2
348,955	8,19
349,161	-124,93
349,367	-45,06
349,573	32,77
349,779	-10,24
349,985	-8,19
350,191	-108,54
350,397	51,2
350,603	16,38
350,809	-6,14
351,015	32,77
351,221	-40,96
351,427	10,24
351,633	34,82
351,839	8,19
352,045	16,38
352,251	67,58
352,457	-6,14
352,663	-22,53
352,869	-45,06
353,075	73,73
353,28	-26,62
353,486	-22,53
353,692	18,43
353,898	-63,49
354,104	-38,91
354,31	45,06
354,515	2,05
354,721	-16,38
354,927	-32,77
355,133	81,92
355,339	8,19
355,544	38,91
355,75	14,34
355,956	-49,15
356,162	-51,2
356,367	24,58
356,573	45,06
356,779	-2,05
356,984	-28,67
357,19	49,15
357,396	53,25
357,602	71,68
357,807	-16,38
358,013	45,06
358,218	49,15
358,424	4,1
358,63	-2,05
358,835	-14,34
359,041	-88,06
359,247	-30,72
359,452	8,19
359,658	-38,91
359,863	14,34
360,069	-16,38
360,274	24,58
360,48	57,34
360,685	-6,14
360,891	43,01
361,097	-73,73
361,302	-2,05
361,508	67,58
361,713	-32,77
361,918	67,58
362,124	0
362,329	51,2
362,535	2,05
362,74	-38,91
362,946	-43,01
363,151	36,86
363,357	32,77
363,562	-43,01
363,767	-75,77
363,973	73,73
364,178	-49,15
364,383	-6,14
364,589	0
364,794	-26,62
365	16,38
365,205	2,05
365,41	-22,53
365,615	43,01
365,821	-2,05
366,026	61,44
366,231	0
366,437	100,35
366,642	-57,34
366,847	61,44
367,052	-14,34
367,258	-59,39
367,463	-28,67
367,668	18,43
367,873	92,16
368,078	65,53
368,284	-79,87
368,489	-51,2
368,694	18,43
368,899	20,48
369,104	18,43
369,309	30,72
369,515	-26,62
369,72	114,69
369,925	34,82
370,13	24,58
370,335	-14,34
370,54	-8,19
370,745	18,43
370,95	14,34
371,155	75,77
371,36	47,1
371,565	10,24
371,77	36,86
371,975	-38,91
372,18	94,21
372,385	112,64
372,59	22,53
372,795	83,97
373	102,4
373,205	49,15
373,41	92,16
373,615	26,62
373,82	-75,77
374,025	22,53
374,23	-67,58
374,435	129,02
374,64	-4,1
374,845	-6,14
375,05	-8,19
375,254	-36,86
375,459	-16,38
375,664	65,53
375,869	28,67
376,074	34,82
376,279	16,38
376,483	2,05
376,688	51,2
376,893	28,67
377,098	-59,39
377,303	75,77
377,507	47,1
377,712	122,88
377,917	67,58
378,122	153,6
378,326	73,73
378,531	34,82
378,736	-24,58
378,94	0
379,145	-18,43
379,35	57,34
379,554	16,38
379,759	-47,1
379,964	8,19
380,168	34,82
380,373	83,97
380,578	122,88
380,782	63,49
380,987	53,25
381,191	57,34
381,396	51,2
381,601	-20,48
381,805	92,16
382,01	67,58
382,214	51,2
382,419	53,25
382,623	49,15
382,828	43,01
383,032	16,38
383,237	-8,19
383,441	-98,3
383,646	51,2
383,85	-71,68
384,055	-24,58
384,259	26,62
384,464	30,72
384,668	-14,34
384,872	83,97
385,077	-14,34
385,281	47,1
385,486	18,43
385,69	92,16
385,894	98,3
386,099	30,72
386,303	2,05
386,507	108,54
386,712	92,16
386,916	-36,86
387,12	36,86
387,325	51,2
387,529	73,73
387,733	12,29
387,937	-18,43
388,142	69,63
388,346	45,06
388,55	79,87
388,754	133,12
388,959	-6,14
389,163	55,3
389,367	12,29
389,571	-18,43
389,775	151,55
389,98	67,58
390,184	47,1
390,388	47,1
390,592	73,73
390,796	32,77
391	133,12
391,204	51,2
391,409	75,77
391,613	90,11
391,817	81,92
392,021	40,96
392,225	45,06
392,429	16,38
392,633	112,64
392,837	83,97
393,041	153,6
393,245	49,15
393,449	65,53
393,653	38,91
393,857	86,01
394,061	155,65
394,265	122,88
394,469	81,92
394,673	172,03
394,877	112,64
395,081	149,5
395,285	143,36
395,489	83,97
395,693	133,12
395,896	100,35
396,1	129,02
396,304	108,54
396,508	38,91
396,712	43,01
396,916	75,77
397,12	153,6
397,323	149,5
397,527	190,46
397,731	210,94
397,935	186,37
398,139	157,69
398,342	196,61
398,546	184,32
398,75	145,41
398,954	180,22
399,157	272,38
399,361	288,76
399,565	172,03
399,769	337,91
399,972	270,33
400,176	198,65
400,38	180,22
400,583	176,13
400,787	272,38
400,991	225,28
401,194	184,32
401,398	258,04
401,601	219,13
401,805	266,24
402,009	239,61
402,212	303,1
402,416	382,97
402,619	204,8
402,823	303,1
403,026	243,71
403,23	231,42
403,433	370,68
403,637	276,48
403,841	243,71
404,044	290,81
404,247	286,72
404,451	327,67
404,654	346,11
404,858	325,63
405,061	358,39
405,265	350,2
405,468	387,07
405,672	217,08
405,875	407,55
406,078	325,63
406,282	311,29
406,485	276,48
406,689	401,4
406,892	417,79
407,095	362,49
407,299	358,39
407,502	301,05
407,705	315,39
407,909	428,03
408,112	409,59
408,315	407,55
408,518	473,08
408,722	372,73
408,925	417,79
409,128	421,88
409,331	415,74
409,535	505,85
409,738	417,79
409,941	518,14
410,144	411,64
410,347	575,48
410,551	489,46
410,754	411,64
410,957	559,1
411,16	493,56
411,363	579,58
411,566	526,33
411,769	542,71
411,973	559,1
412,176	634,87
412,379	593,91
412,582	667,64
412,785	550,9
412,988	530,42
413,191	632,82
413,394	573,43
413,597	552,95
413,8	485,37
414,003	727,03
414,206	655,35
414,409	626,68
414,612	714,74
414,815	663,54
415,018	690,17
415,221	706,55
415,424	737,27
415,627	811
415,83	692,21
416,033	731,12
416,235	774,13
416,438	833,52
416,641	837,62
416,844	790,52
417,047	796,66
417,25	706,55
417,453	872,43
417,655	720,88
417,858	931,83
418,061	901,11
418,264	897,01
418,467	915,44
418,669	917,49
418,872	940,02
419,075	989,17
419,278	1026,03
419,48	1042,42
419,683	1107,95
419,886	1073,14
420,089	1177,58
420,291	1177,58
420,494	1138,67
420,697	1249,26
420,899	1253,36
421,102	1116,14
421,305	1198,06
421,507	1138,67
421,71	1335,28
421,912	1398,76
422,115	1290,22
422,318	1337,32
422,52	1384,43
422,723	1308,65
422,925	1480,68
423,128	1499,11
423,33	1386,47
423,533	1492,97
423,735	1578,98
423,938	1554,41
424,14	1681,38
424,343	1654,76
424,545	1681,38
424,748	1712,1
424,95	1787,88
425,153	1742,82
425,355	1763,3
425,558	1918,95
425,76	1955,81
425,962	1873,89
426,165	1902,56
426,367	1968,1
426,57	2121,7
426,772	2062,3
426,974	2115,55
427,177	1992,67
427,379	2056,16
427,581	2220
427,784	2226,14
427,986	2076,64
428,188	2252,77
428,39	2473,95
428,593	2447,32
428,795	2455,51
428,997	2592,73
429,2	2512,86
429,402	2555,86
429,604	2605,02
429,806	2529,24
430,008	2764,76
430,211	2815,96
430,413	2758,61
430,615	2793,43
430,817	2971,6
431,019	2961,36
431,221	3028,95
431,423	3071,95
431,626	3071,95
431,828	3237,84
432,03	3182,54
432,232	3192,78
432,434	3393,48
432,636	3364,81
432,838	3334,09
433,04	3411,92
433,242	3569,61
433,444	3493,83
433,646	3585,99
433,848	3655,62
434,05	3786,69
434,252	3579,85
434,454	3612,62
434,656	3864,52
434,858	3930,05
435,06	4077,51
435,262	4145,09
435,464	4229,06
435,666	4380,61
435,868	4130,75
436,07	4464,57
436,271	4462,52
436,473	4376,51
436,675	4499,39
436,877	4548,54
437,079	4196,29
437,281	4536,25
437,482	4642,75
437,684	4761,53
437,886	4743,1
438,088	4777,91
438,29	4573,11
438,491	4804,53
438,693	4730,81
438,895	5048,24
439,097	5412,78
439,298	5103,54
439,5	5066,67
439,702	5261,23
439,903	5081,01
440,105	5343,15
440,307	5660,59
440,508	5621,67
440,71	5808,04
440,912	5711,78
441,113	5453,74
441,315	5685,16
441,517	5881,77
441,718	6119,33
441,92	5990,31
442,121	5879,72
442,323	5971,88
442,524	5910,44
442,726	6287,26
442,928	6184,87
443,129	6473,63
443,331	6068,13
443,532	6639,51
443,734	6623,13
443,935	6922,13
444,136	6346,66
444,338	6829,98
444,539	6768,54
444,741	6872,98
444,942	6860,7
445,144	6997,91
445,345	7169,94
445,546	7303,06
445,748	7137,17
445,949	7253,91
446,151	7288,72
446,352	7460,75
446,553	7595,92
446,755	7444,37
446,956	8030,09
447,157	7862,15
447,359	7939,97
447,56	8368
447,761	8259,46
447,962	8685,44
448,164	8503,17
448,365	8279,94
448,566	8644,48
448,767	8456,06
448,969	8732,54
449,17	8738,68
449,371	8800,12
449,572	8853,37
449,773	9160,56
449,974	9262,96
450,176	9316,21
450,377	9502,57
450,578	9744,24
450,779	9127,8
450,98	9131,89
451,181	9439,09
451,382	9508,72
451,583	9854,83
451,784	9666,41
451,986	10454,88
452,187	9860,97
452,388	9713,52
452,589	9602,93
452,79	10334,05
452,991	9680,75
453,192	10383,2
453,393	9949,03
453,594	10948,44
453,795	10080,1
453,995	9926,5
454,196	9996,14
454,397	10280,8
454,598	10239,84
454,799	10633,05
455	10426,21
455,201	10436,45
455,402	10438,5
455,603	10078,05
455,804	10733,4
456,004	11003,74
456,205	10237,8
456,406	10243,94
456,607	10028,9
456,808	10399,59
457,008	10346,34
457,209	9842,54
457,41	10698,59
457,611	9926,5
457,811	10254,18
458,012	10352,48
458,213	10454,88
458,414	9873,26
458,614	9994,09
458,815	9815,91
459,016	9750,38
459,216	9914,22
459,417	9797,48
459,618	9555,82
459,818	9453,42
460,019	9486,19
460,22	9154,42
460,42	9537,39
460,621	8931,19
460,821	9119,6
461,022	9127,8
461,223	8775,55
461,423	8759,16
461,624	8718,2
461,824	8734,59
462,025	8269,7
462,225	8710,01
462,426	8628,09
462,626	8107,91
462,827	8193,92
463,027	8021,89
463,228	8169,35
463,428	7602,06
463,628	7806,86
463,829	8107,91
464,029	7522,19
464,23	7552,91
464,43	7307,15
464,63	7298,96
464,831	7348,11
465,031	7503,76
465,231	7301,01
465,432	7534,48
465,632	7016,34
465,832	6766,49
466,033	6940,57
466,233	6854,55
466,433	6705,05
466,634	6799,26
466,834	6913,94
467,034	6297,5
467,234	6846,36
467,435	6578,08
467,635	6666,14
467,835	6186,91
468,035	6516,64
468,235	6107,04
468,436	6018,98
468,636	6305,7
468,836	5930,92
469,036	6260,64
469,236	6064,04
469,436	5928,87
469,636	6127,52
469,836	5902,25
470,037	5920,68
470,237	5754,79
470,437	5879,72
470,637	5748,65
470,837	5758,89
471,037	5988,26
471,237	6100,9
471,437	5613,48
471,637	5978,02
471,837	6326,18
472,037	5797,8
472,237	5894,05
472,437	5980,07
472,637	6037,41
472,837	5941,16
473,036	5705,64
473,236	5754,79
473,436	5638,06
473,636	5648,3
473,836	5525,42
474,036	5859,24
474,236	5756,84
474,436	5672,87
474,635	5697,45
474,835	5793,7
475,035	6170,53
475,235	6045,6
475,435	5980,07
475,634	5824,42
475,834	6068,13
476,034	5703,59
476,234	5900,2
476,433	5846,95
476,633	5664,68
476,833	5765,03
477,033	5654,44
477,232	5861,29
477,432	5613,48
477,632	5805,99
477,831	5717,93
478,031	5652,39
478,231	5777,32
478,43	5754,79
478,63	5703,59
478,829	5568,43
479,029	5662,63
479,229	5652,39
479,428	5777,32
479,628	5650,35
479,827	5822,38
480,027	5633,96
480,226	5691,31
480,426	5668,78
480,625	5416,88
480,825	5789,61
481,024	5719,98
481,224	5728,17
481,423	5537,71
481,623	5609,39
481,822	5584,81
482,021	5728,17
482,221	5601,19
482,42	5488,56
482,62	5572,52
482,819	5392,3
483,018	5609,39
483,218	5558,19
483,417	5681,07
483,616	5617,58
483,816	5590,95
484,015	5588,91
484,214	5461,93
484,414	5517,23
484,613	5314,48
484,812	5324,72
485,011	5351,34
485,211	5431,21
485,41	5570,47
485,609	5515,18
485,808	5257,14
486,008	5406,64
486,207	5394,35
486,406	5506,99
486,605	5500,84
486,804	5392,3
487,003	5652,39
487,203	5486,51
487,402	5425,07
487,601	5537,71
487,8	5500,84
487,999	5349,29
488,198	5574,57
488,397	5463,98
488,596	5486,51
488,795	5498,8
488,994	5488,56
489,193	5541,8
489,392	5689,26
489,591	5576,62
489,79	5576,62
489,989	5674,92
490,188	5533,61
490,387	5693,35
490,586	5447,6
490,785	5484,46
490,984	5699,5
491,183	5748,65
491,382	5681,07
491,581	5679,02
491,779	5656,49
491,978	5740,46
492,177	5625,77
492,376	5818,28
492,575	5681,07
492,774	5666,73
492,972	5654,44
493,171	5646,25
493,37	5681,07
493,569	5849
493,768	5660,59
493,966	5834,66
494,165	5689,26
494,364	6002,6
494,563	5898,15
494,761	5851,05
494,96	5826,47
495,159	6008,74
495,357	5810,09
495,556	5701,55
495,755	5855,14
495,953	5928,87
496,152	5664,68
496,35	5810,09
496,549	5859,24
496,748	5879,72
496,946	6059,94
497,145	5939,11
497,343	5834,66
497,542	5846,95
497,74	5935,01
497,939	6098,85
498,137	6037,41
498,336	5922,73
498,534	5834,66
498,733	5922,73
498,931	5957,54
499,13	5892,01
499,328	5887,91
499,527	6258,59
499,725	5879,72
499,924	6231,97
500,122	6055,84
500,32	6260,64
500,519	6168,48
500,717	6254,5
500,915	6260,64
501,114	6338,46
501,312	6379,42
501,51	6440,86
501,709	6444,96
501,907	6363,04
502,105	6412,19
502,304	6408,09
502,502	6475,68
502,7	6477,73
502,898	6569,88
503,097	6668,19
503,295	6703
503,493	6868,89
503,691	6825,88
503,889	6678,43
504,088	6698,91
504,286	6969,24
504,484	6920,09
504,682	7223,19
504,88	7260,05
505,078	7366,54
505,276	7378,83
505,474	7655,31
505,672	7499,66
505,871	7554,96
506,069	7710,6
506,267	7681,93
506,465	7792,52
506,663	7858,06
506,861	7718,79
507,059	8187,78
507,257	8163,2
507,455	8337,28
507,653	8347,52
507,851	8267,65
508,049	8259,46
508,246	8724,35
508,444	8771,45
508,642	8689,53
508,84	8824,7
509,038	8808,31
509,236	9267,06
509,434	9125,75
509,632	9289,59
509,829	9611,12
510,027	9281,39
510,225	9570,16
510,423	9607,02
510,621	9684,84
510,818	9934,7
511,016	10383,2
511,214	10129,25
511,412	10467,17
511,609	10559,33
511,807	10647,39
512,005	10544,99
512,203	10839,9
512,4	11161,43
512,598	11345,75
512,796	11511,63
512,993	11681,61
513,191	11427,67
513,389	11706,19
513,586	12132,17
513,784	12255,04
513,981	12422,98
514,179	12633,92
514,377	12433,22
514,574	12711,74
514,772	12758,85
514,969	13195,06
515,167	13297,46
515,364	13614,9
515,562	13444,91
515,759	13926,19
515,957	13606,7
516,154	14047,02
516,352	14303,01
516,549	14296,87
516,746	14538,53
516,944	14954,27
517,141	15021,85
517,339	14839,58
517,536	15488,79
517,733	15675,15
517,931	15748,88
518,128	16023,31
518,325	16453,38
518,523	16772,86
518,72	16948,99
518,917	17401,59
519,115	17364,73
519,312	17372,92
519,509	17737,46
519,707	17520,37
519,904	18145
520,101	18435,81
520,298	18753,25
520,495	18966,24
520,693	18802,4
520,89	19144,41
521,087	19001,05
521,284	19562,2
521,481	19511
521,678	19906,26
521,876	20076,24
522,073	20231,88
522,27	20178,64
522,467	20541,13
522,664	20842,18
522,861	21079,74
523,058	21429,94
523,255	21843,63
523,452	22015,66
523,649	21964,46
523,846	22425,26
524,043	22539,94
524,24	22769,32
524,437	22709,93
524,634	23293,6
524,831	23596,7
525,028	23520,92
525,225	24022,67
525,422	24137,36
525,619	24649,35
525,816	24245,9
526,013	24874,63
526,209	25220,74
526,406	24997,51
526,603	24968,83
526,8	25431,68
526,997	25368,19
527,194	25843,32
527,39	25894,52
527,587	25960,05
527,784	26400,37
527,981	26437,23
528,177	26979,94
528,374	27387,49
528,571	26981,99
528,768	27694,68
528,964	27571,8
529,161	27721,31
529,358	28474,96
529,554	28454,48
529,751	28524,11
529,948	28442,19
530,144	28675,66
530,341	29197,89
530,537	29324,86
530,734	29799,99
530,931	29677,12
531,127	30035,51
531,324	30363,18
531,52	30162,48
531,717	30522,93
531,913	30776,87
532,11	31254,05
532,306	31329,83
532,503	31608,35
532,699	31833,63
532,896	32120,34
533,092	31555,1
533,289	31700,51
533,485	32767,5
533,682	32341,52
533,878	32103,96
534,074	32058,9
534,271	32687,63
534,467	32570,89
534,664	33123,85
534,86	33314,31
535,056	34045,43
535,253	33644,03
535,449	34090,49
535,645	33336,84
535,841	33938,94
536,038	34063,86
536,234	33674,75
536,43	34190,84
536,626	34715,12
536,823	34514,42
537,019	34590,19
537,215	34606,58
537,411	34821,61
537,607	34993,64
537,804	35669,47
538	35417,57
538,196	35808,73
538,392	35872,22
538,588	36287,96
538,784	36535,76
538,98	36318,68
539,176	35941,85
539,373	36853,2
539,569	36361,69
539,765	36711,89
539,961	37617,09
540,157	37303,75
540,353	36746,7
540,549	37424,58
540,745	37275,08
540,941	37520,84
541,137	37146,06
541,333	37500,36
541,528	38366,65
541,724	37561,79
541,92	37809,6
542,116	37164,49
542,312	37729,73
542,508	38012,35
542,704	38145,47
542,9	38679,99
543,096	38819,25
543,291	38788,53
543,487	38579,64
543,683	38634,93
543,879	38198,71
544,075	38081,98
544,27	38671,79
544,466	38899,12
544,662	38829,49
544,858	39955,87
545,053	39697,83
545,249	39888,29
545,445	39554,47
545,64	39884,19
545,836	39456,17
546,032	39583,14
546,227	39355,82
546,423	39564,71
546,619	39697,83
546,814	39964,06
547,01	39785,89
547,205	40310,17
547,401	39980,45
547,597	40879,5
547,792	40840,59
547,988	41420,17
548,183	40820,11
548,379	41401,74
548,574	40742,29
548,77	41063,82
548,965	41135,5
549,161	41510,28
549,356	41188,75
549,552	41727,36
549,747	41094,54
549,942	40869,26
550,138	41567,62
550,333	41151,88
550,529	41162,12
550,724	41950,59
550,919	41409,93
551,115	41960,83
551,31	41078,16
551,505	41512,33
551,701	41606,53
551,896	41772,42
552,091	42030,46
552,287	41876,86
552,482	42104,19
552,677	42114,43
552,872	41594,25
553,067	41483,65
553,263	42413,43
553,458	41954,69
553,653	41692,55
553,848	42157,44
554,043	41500,04
554,239	42087,81
554,434	42096
554,629	42489,21
554,824	42444,15
555,019	42487,16
555,214	42421,62
555,409	42315,13
555,604	42343,8
555,799	42521,98
555,994	42712,44
556,189	42528,12
556,384	43033,97
556,579	42726,77
556,774	42464,63
556,969	42085,76
557,164	42141,05
557,359	42091,9
557,554	41837,95
557,749	42110,33
557,944	42104,19
558,139	42640,76
558,334	42530,17
558,529	42702,2
558,724	42657,14
558,918	43273,58
559,113	42956,14
559,308	42896,75
559,503	42487,16
559,698	42704,24
559,893	42317,18
560,087	42564,98
560,282	42063,23
560,477	42167,68
560,672	42851,7
560,866	42790,26
561,061	42397,05
561,256	43036,02
561,45	42429,82
561,645	43283,82
561,84	42886,51
562,034	42642,81
562,229	42395
562,424	42878,32
562,618	42661,24
562,813	42755,44
563,008	42863,99
563,202	42945,9
563,397	42175,87
563,591	42274,17
563,786	42444,15
563,98	42306,94
564,175	42274,17
564,369	42065,28
564,564	42620,28
564,758	42759,54
564,953	42366,33
565,147	42581,37
565,342	42286,46
565,536	42753,4
565,731	42730,87
565,925	42861,94
566,119	42241,4
566,314	42806,64
566,508	41946,5
566,703	42351,99
566,897	42259,84
567,091	42532,21
567,286	42411,38
567,48	42485,11
567,674	42978,67
567,868	42558,84
568,063	42155,39
568,257	42456,44
568,451	42562,93
568,646	42249,6
568,84	41956,74
569,034	42032,51
569,228	41774,47
569,422	41938,3
569,616	41934,21
569,811	42487,16
570,005	42526,07
570,199	43089,26
570,393	42825,07
570,587	42646,9
570,781	42018,17
570,975	42143,1
571,169	42028,41
571,364	42351,99
571,558	42028,41
571,752	42012,03
571,946	41565,57
572,14	41848,19
572,334	41721,22
572,528	41942,4
572,722	41315,72
572,916	41579,91
573,109	41469,32
573,303	41584,01
573,497	41811,33
573,691	42411,38
573,885	41688,45
574,079	42724,72
574,273	42171,77
574,467	41897,34
574,661	41371,02
574,854	41581,96
575,048	41336,2
575,242	41217,42
575,436	40889,74
575,63	40590,74
575,823	40523,16
576,017	40676,76
576,211	40674,71
576,405	41602,44
576,598	40689,04
576,792	41676,16
576,986	41119,12
577,18	41338,25
577,373	41649,54
577,567	41979,26
577,761	41930,11
577,954	42300,79
578,148	41667,97
578,341	41559,43
578,535	41420,17
578,729	41594,25
578,922	40883,6
579,116	41473,42
579,309	40623,51
579,503	41160,08
579,696	40715,67
579,89	40742,29
580,083	40553,88
580,277	41078,16
580,47	40863,12
580,664	41225,61
580,857	41328,01
581,051	40992,14
581,244	40842,64
581,437	41125,26
581,631	40859,02
581,824	40766,87
582,018	40570,26
582,211	40482,2
582,404	40138,14
582,598	40330,65
582,791	40512,92
582,984	39826,85
583,178	39898,53
583,371	40701,33
583,564	40181,15
583,757	40627,6
583,951	40506,77
584,144	40261,02
584,337	40170,91
584,53	40129,95
584,723	40357,27
584,917	40461,72
585,11	40025,5
585,303	40334,74
585,496	39300,52
585,689	40021,41
585,882	39675,3
586,075	39638,44
586,268	39470,5
586,462	39773,6
586,655	39712,16
586,848	39689,63
587,041	40201,63
587,234	40344,98
587,427	40531,35
587,62	40373,66
587,813	40617,36
588,006	40854,93
588,199	40560,02
588,392	40930,7
588,585	40488,34
588,777	40369,56
588,97	39988,64
589,163	40213,91
589,356	40011,17
589,549	39798,18
589,742	39466,41
589,935	39243,18
590,128	38931,89
590,32	39269,8
590,513	38876,59
590,706	39814,56
590,899	39048,62
591,092	39142,83
591,284	39065
591,477	38712,75
591,67	38888,88
591,863	38845,87
592,055	38796,72
592,248	38118,84
592,441	38397,37
592,633	38903,21
592,826	38522,29
593,019	38620,59
593,211	38290,87
593,404	38557,11
593,596	38538,68
593,789	38340,02
593,982	38022,59
594,174	38489,52
594,367	38737,33
594,559	38710,71
594,752	38133,18
594,944	37686,72
595,137	38028,73
595,329	37995,96
595,522	38262,2
595,714	38184,38
595,907	37899,71
596,099	37588,42
596,292	37580,23
596,484	37514,69
596,676	36861,39
596,869	37160,39
597,061	37203,4
597,253	37313,99
597,446	37154,25
597,638	37739,97
597,83	36871,63
598,023	36806,09
598,215	36580,82
598,407	37004,75
598,6	36601,3
598,792	37309,89
598,984	37168,58
599,176	36433,36
599,369	36402,64
599,561	36586,96
599,753	36195,8
599,945	36388,31
600,137	36181,46
600,329	36306,39
600,522	35995,1
600,714	35759,58
600,906	36011,48
601,098	35452,39
601,29	35251,69
601,482	35180,01
601,674	35433,96
601,866	35804,64
602,058	35466,72
602,25	35579,36
602,442	35048,94
602,634	35180,01
602,826	35042,79
603,018	35141,1
603,21	35286,5
603,402	34815,47
603,594	34668,01
603,786	35280,36
603,978	34962,92
604,17	35046,89
604,362	34825,71
604,554	34440,69
604,745	34047,48
604,937	34522,61
605,129	34485,75
605,321	34035,19
605,513	34389,49
605,704	34309,62
605,896	33918,46
606,088	33908,22
606,28	33619,46
606,471	33887,74
606,663	33209,86
606,855	33162,76
607,047	33441,28
607,238	33240,58
607,43	32366,1
607,622	32960,01
607,813	32632,33
608,005	32661,01
608,197	32704,01
608,388	33023,5
608,58	31872,54
608,771	32593,42
608,963	32325,14
609,154	32519,7
609,346	32052,76
609,537	32417,3
609,729	32405,01
609,921	32484,88
610,112	31600,16
610,303	31669,79
610,495	31520,29
610,686	31591,97
610,878	31467,04
611,069	30936,62
611,261	30914,09
611,452	30895,66
611,643	30623,28
611,835	30709,29
612,026	30412,34
612,217	30912,04
612,409	30543,41
612,6	30572,08
612,791	30443,06
612,983	30297,65
613,174	29836,86
613,365	29533,76
613,557	29550,14
613,748	29341,25
613,939	29503,04
614,13	29916,73
614,321	30066,23
614,513	29986,36
614,704	29603,39
614,895	29666,88
615,086	29019,72
615,277	29283,91
615,468	29013,57
615,659	29394,5
615,851	29099,59
616,042	29144,64
616,233	29075,01
616,424	29351,49
616,615	29232,71
616,806	29048,39
616,997	28642,89
617,188	28587,6
617,379	29058,63
617,57	28704,33
617,761	28546,64
617,952	28835,4
618,143	28907,08
618,334	28872,26
618,524	28816,97
618,715	29173,31
618,906	28661,32
619,097	28089,94
619,288	28692,04
619,479	28434
619,67	28311,12
619,86	28266,06
620,051	28139,09
620,242	28425,81
620,433	28296,78
620,624	28444,24
620,814	28655,18
621,005	28374,61
621,196	28307,02
621,386	28620,36
621,577	28499,53
621,768	27965,01
621,958	27883,09
622,149	27965,01
622,34	28235,35
622,53	28106,32
622,721	28122,71
622,912	28661,32
623,102	28483,15
623,293	28460,62
623,483	28286,54
623,674	28491,34
623,864	28745,29
624,055	28673,61
624,245	28606,03
624,436	28210,77
624,626	28540,49
624,817	28335,7
625,007	28292,69
625,198	28571,21
625,388	28313,17
625,579	28503,63
625,769	28388,94
625,959	28608,08
626,15	27942,49
626,34	28167,76
626,531	27827,8
626,721	28100,18
626,911	27733,59
627,101	28077,65
627,292	27852,38
627,482	28479,05
627,672	28255,82
627,863	28091,99
628,053	28087,89
628,243	28081,75
628,433	28182,1
628,623	28354,13
628,814	28161,62
629,004	28104,28
629,194	27803,22
629,384	27760,22
629,574	27225,7
629,764	27270,75
629,955	27020,9
630,145	27022,95
630,335	27268,7
630,525	27309,66
630,715	26771,05
630,905	27405,92
631,095	27154,02
631,285	26959,46
631,475	26388,08
631,665	26650,22
631,855	26476,14
632,045	26621,55
632,235	26478,19
632,425	26343,02
632,615	26060,4
632,805	26201,71
632,994	25534,07
633,184	26125,94
633,374	25790,07
633,564	25990,77
633,754	25951,86
633,944	26287,73
634,133	25644,66
634,323	26105,46
634,513	25732,73
634,703	25902,71
634,893	25243,26
635,082	25462,4
635,272	25087,62
635,462	25312,89
635,651	25486,97
635,841	25104
636,031	24788,61
636,221	24682,12
636,41	24764,04
636,6	24247,95
636,789	24415,88
636,979	24428,17
637,169	24075,92
637,358	23824,02
637,548	23713,43
637,737	23207,58
637,927	23385,76
638,116	23383,71
638,306	23180,96
638,495	23621,27
638,685	23176,86
638,874	23897,75
639,064	23316,12
639,253	23680,66
639,443	23441,05
639,632	23377,56
639,822	23234,21
640,011	23031,46
640,2	22822,56
640,39	23148,19
640,579	22963,87
640,768	22937,25
640,958	22965,92
641,147	22890,15
641,336	22677,16
641,526	22601,38
641,715	22048,43
641,904	22177,45
642,093	21755,57
642,283	21991,09
642,472	22017,71
642,661	21724,85
642,85	22253,23
643,039	21749,43
643,228	21855,92
643,418	21978,8
643,607	21915,31
643,796	21890,74
643,985	21556,92
644,174	21431,99
644,363	21481,14
644,552	21360,31
644,741	21147,33
644,93	21143,23
645,119	20913,86
645,308	21286,59
645,497	20621
645,686	20559,56
645,875	20584,13
646,064	20164,3
646,253	20096,72
646,442	20580,04
646,631	20201,16
646,82	19918,54
647,009	20256,46
647,198	20219,6
647,387	20033,23
647,575	19941,07
647,764	20539,08
647,953	19263,19
648,142	19732,18
648,331	19719,89
648,519	19146,46
648,708	19224,28
648,897	18720,48
649,086	19355,35
649,274	18988,77
649,463	18986,72
649,652	19054,3
649,84	19230,43
650,029	18818,78
650,218	19080,92
650,406	18925,28
650,595	18783,97
650,784	18534,12
650,972	18917,09
651,161	18474,73
651,349	18497,25
651,538	18212,59
651,726	18261,74
651,915	18040,56
652,104	18138,86
652,292	18147,05
652,481	17821,42
652,669	17860,34
652,857	17975,02
653,046	17907,44
653,234	18003,69
653,423	17813,23
653,611	17657,59
653,8	17387,25
653,988	17645,3
654,176	17284,86
654,365	17436,41
654,553	17311,48
654,741	17004,28
654,93	16869,12
655,118	16824,06
655,306	16889,6
655,494	16867,07
655,683	16822,02
655,871	16957,18
656,059	16951,04
656,247	16721,66
656,436	16596,74
656,624	16566,02
656,812	16453,38
657	16320,26
657,188	16328,45
657,376	16414,47
657,564	16189,19
657,753	16359,17
657,941	16144,14
658,129	16588,55
658,317	16000,78
658,505	15949,58
658,693	15599,38
658,881	15834,89
659,069	15759,12
659,257	15613,71
659,445	15556,37
659,633	15834,89
659,821	15619,86
660,009	15601,43
660,197	15380,25
660,384	15390,49
660,572	15406,87
660,76	15392,53
660,948	15396,63
661,136	15103,77
661,324	15060,76
661,512	15361,81
661,699	15079,19
661,887	14886,68
662,075	14991,13
662,263	14587,68
662,451	14200,62
662,638	14444,32
662,826	14290,73
663,014	14702,37
663,201	14370,6
663,389	14370,6
663,577	14182,18
663,764	14493,47
663,952	14081,83
664,14	14173,99
664,327	14245,67
664,515	14083,88
664,702	13756,21
664,89	13979,43
665,078	13643,57
665,265	13948,72
665,453	13858,6
665,64	13770,54
665,828	13750,06
666,015	13461,3
666,203	13459,25
666,39	13649,71
666,578	13272,89
666,765	13287,22
666,952	12961,59
667,14	12957,5
667,327	12859,2
667,515	12883,77
667,702	12762,94
667,889	12986,17
668,077	12910,39
668,264	12877,63
668,451	12879,68
668,638	13094,71
668,826	12959,55
669,013	12654,4
669,2	12619,58
669,388	12568,38
669,575	12320,58
669,762	12058,44
669,949	12025,67
670,136	12779,32
670,323	12134,21
670,511	12250,95
670,698	11984,71
670,885	11929,42
671,072	11728,72
671,259	11614,03
671,446	11706,19
671,633	11759,44
671,82	11687,76
672,007	11700,05
672,194	11714,38
672,381	11753,29
672,568	11671,37
672,755	11560,78
672,942	11804,49
673,129	11528,02
673,316	11650,89
673,503	11366,23
673,69	11368,27
673,877	11296,6
674,064	11355,99
674,251	11188,05
674,437	11237,2
674,624	10991,45
674,811	10930,01
674,998	10921,82
675,185	10753,88
675,372	10721,12
675,558	10585,95
675,745	10581,85
675,932	10532,7
676,119	10721,12
676,305	10479,46
676,492	10575,71
676,679	10432,35
676,865	10332
677,052	10270,56
677,239	10354,53
677,425	10237,8
677,612	10227,56
677,798	9938,79
677,985	10035,05
678,172	10035,05
678,358	9953,13
678,545	10010,47
678,731	9791,34
678,918	9838,44
679,104	9574,25
679,291	9805,67
679,477	9723,76
679,664	9437,04
679,85	9602,93
680,036	9445,23
680,223	9709,42
680,409	9719,66
680,596	9729,9
680,782	9736,04
680,968	9387,89
681,155	9504,62
681,341	9488,24
681,527	9115,51
681,714	9174,9
681,9	9174,9
682,086	8933,24
682,272	8923
682,459	8605,56
682,645	8736,63
682,831	8861,56
683,017	8806,27
683,204	8816,51
683,39	8744,83
683,576	8791,93
683,762	8615,8
683,948	8722,3
684,134	8599,42
684,32	8675,2
684,506	8370,05
684,693	8271,75
684,879	8054,66
685,065	8210,31
685,251	7972,74
685,437	8054,66
685,623	7999,37
685,809	7929,73
685,995	7831,43
686,181	7833,48
686,366	7774,09
686,552	7933,83
686,738	7694,22
686,924	7767,95
687,11	7741,32
687,296	7591,82
687,482	7505,81
687,668	7258
687,853	7245,71
688,039	7364,5
688,225	7507,85
688,411	7473,04
688,597	7561,1
688,782	7415,69
688,968	7335,82
689,154	7118,74
689,34	7237,52
689,525	7155,6
689,711	7208,85
689,897	7274,38
690,082	7210,9
690,268	7137,17
690,454	7182,23
690,639	7131,03
690,825	7141,27
691,01	7063,44
691,196	6870,94
691,381	6891,41
691,567	6758,3
691,753	6670,23
691,938	6711,19
692,124	6518,68
692,309	6430,62
692,494	6709,15
692,68	6709,15
692,865	6475,68
693,051	6326,18
693,236	6432,67
693,422	6408,09
693,607	6236,06
693,792	6223,78
693,978	5990,31
694,163	6215,59
694,348	6219,68
694,534	6440,86
694,719	6158,24
694,904	6139,81
695,089	6135,71
695,275	6272,93
695,46	6221,73
695,645	6076,32
695,83	6047,65
696,016	5930,92
696,201	5896,1
696,386	6025,12
696,571	6039,46
696,756	5857,19
696,941	5922,73
697,126	5797,8
697,311	5779,37
697,497	5660,59
697,682	5580,71
697,867	5842,85
698,052	5586,86
698,237	5711,78
698,422	5496,75
698,607	5480,36
698,792	5392,3
698,977	5197,74
699,162	5302,19
699,347	5306,29
699,531	5242,8
699,716	5181,36
699,901	5210,03
700,086	5207,98
700,271	5048,24
700,456	4980,66
700,641	5040,05
700,825	5001,14
701,01	4925,36
701,195	5031,86
701,38	5025,72
701,565	5029,81
701,749	4902,84
701,934	4913,08
702,119	4820,92
702,303	4911,03
702,488	4745,14
702,673	4908,98
702,857	4765,62
703,042	4800,44
703,227	4943,8
703,411	4646,84
703,596	4763,58
703,78	4542,39
703,965	4401,08
704,15	4431,8
704,334	4423,61
704,519	4409,28
704,703	4446,14
704,888	4476,86
705,072	4450,24
705,257	4310,97
705,441	4435,9
705,625	4431,8
705,81	4507,58
705,994	4360,13
706,179	4382,65
706,363	4310,97
706,547	4114,37
706,732	4292,54
706,916	4192,19
707,1	4138,94
707,285	4241,34
707,469	4130,75
707,653	4120,51
707,837	3995,59
708,022	4022,21
708,206	4208,58
708,39	3893,19
708,574	4063,17
708,759	4054,98
708,943	3940,29
709,127	4044,74
709,311	3971,01
709,495	3866,56
709,679	3866,56
709,863	3801,03
710,047	3661,77
710,231	3782,6
710,415	3645,38
710,6	3463,12
710,784	3667,91
710,968	3520,46
711,152	3690,44
711,336	3592,14
711,519	3557,32
711,703	3522,51
711,887	3633,1
712,071	3665,86
712,255	3563,47
712,439	3590,09
712,623	3688,39
712,807	3375,05
712,991	3467,21
713,174	3368,91
713,358	3411,92
713,542	3309,52
713,726	3442,64
713,91	3262,41
714,093	3411,92
714,277	3196,88
714,461	3311,57
714,645	3160,02
714,828	3139,54
715,012	3143,63
715,196	3080,15
715,379	3063,76
715,563	3227,6
715,747	2992,08
715,93	2975,7
716,114	3051,47
716,297	2799,57
716,481	2861,01
716,664	2973,65
716,848	2842,58
717,031	2789,33
717,215	2828,24
717,398	2813,91
717,582	2791,38
717,765	2815,96
717,949	2750,42
718,132	2805,72
718,316	2764,76
718,499	2697,17
718,682	2791,38
718,866	2672,6
719,049	2838,48
719,233	2600,92
719,416	2539,48
719,599	2699,22
719,782	2623,45
719,966	2664,41
720,149	2553,82
720,332	2547,67
720,515	2582,49
720,699	2672,6
720,882	2736,09
721,065	2576,34
721,248	2539,48
721,431	2498,52
721,615	2392,03
721,798	2471,9
721,981	2406,36
722,164	2510,81
722,347	2455,51
722,53	2572,25
722,713	2387,93
722,896	2469,85
723,079	2369,5
723,262	2435,03
723,445	2344,92
723,628	2332,64
723,811	2445,27
723,994	2164,7
724,177	2293,72
724,36	2322,4
724,543	2303,96
724,726	2168,8
724,909	2222,05
725,091	2240,48
725,274	2189,28
725,457	2113,5
725,64	2103,26
725,823	2154,46
726,006	2107,36
726,188	2148,32
726,371	2236,38
726,554	2023,39
726,737	2170,85
726,919	2164,7
727,102	2144,22
727,285	2111,46
727,467	2066,4
727,65	1998,82
727,833	1990,63
728,015	1972,19
728,198	2056,16
728,38	1964
728,563	1853,41
728,746	1877,99
728,928	2000,87
729,111	1896,42
729,293	1998,82
729,476	1873,89
729,658	1931,23
729,841	1916,9
730,023	1992,67
730,205	1916,9
730,388	1880,04
730,57	1865,7
730,753	1837,03
730,935	1880,04
731,117	1841,12
731,3	1816,55
731,482	1867,75
731,664	1777,64
731,847	1859,56
732,029	1810,4
732,211	1869,8
732,394	1730,53
732,576	1751,01
732,758	1841,12
732,94	1710,05
733,122	1679,33
733,305	1853,41
733,487	1785,83
733,669	1681,38
733,851	1703,91
734,033	1703,91
734,215	1699,81
734,397	1638,37
734,58	1742,82
734,762	1683,43
734,944	1581,03
735,126	1615,85
735,308	1619,94
735,49	1583,08
735,672	1583,08
735,854	1564,65
736,036	1513,45
736,218	1619,94
736,399	1552,36
736,581	1521,64
736,763	1628,14
736,945	1615,85
737,127	1556,46
737,309	1644,52
737,491	1533,93
737,672	1482,73
737,854	1490,92
738,036	1452,01
738,218	1519,59
738,4	1433,58
738,581	1497,07
738,763	1466,35
738,945	1458,15
739,127	1447,91
739,308	1376,23
739,49	1468,39
739,672	1527,78
739,853	1497,07
740,035	1474,54
740,216	1443,82
740,398	1484,78
740,58	1392,62
740,761	1517,54
740,943	1337,32
741,124	1372,14
741,306	1277,93
741,487	1327,08
741,669	1284,08
741,85	1359,85
742,032	1423,34
742,213	1337,32
742,394	1214,45
742,576	1398,76
742,757	1329,13
742,939	1370,09
743,12	1294,32
743,301	1288,17
743,483	1249,26
743,664	1224,69
743,845	1279,98
744,027	1140,72
744,208	1124,33
744,389	1292,27
744,57	1236,97
744,752	1173,49
744,933	1181,68
745,114	1183,73
745,295	1105,9
745,476	1259,5
745,657	1142,77
745,839	1263,6
746,02	1269,74
746,201	1241,07
746,382	1173,49
746,563	1292,27
746,744	1099,76
746,925	1171,44
747,106	1099,76
747,287	1085,42
747,468	1263,6
747,649	1148,91
747,83	1155,05
748,011	1101,81
748,192	1171,44
748,373	1132,53
748,554	1042,42
748,735	1124,33
748,915	1056,75
749,096	1050,61
749,277	1157,1
749,458	1073,14
749,639	1200,11
749,82	1066,99
750	1040,37
750,181	1013,74
750,362	1073,14
750,543	1169,39
750,723	1060,85
750,904	1048,56
751,085	1042,42
751,265	1009,65
751,446	1034,22
751,627	1009,65
751,807	1073,14
751,988	1007,6
752,169	1097,71
752,349	1128,43
752,53	1091,57
752,71	1019,89
752,891	1163,25
753,071	1099,76
753,252	976,88
753,432	1058,8
753,613	1073,14
753,793	1056,75
753,974	1077,23
754,154	1079,28
754,334	1107,95
754,515	999,41
754,695	1046,51
754,876	1173,49
755,056	1058,8
755,236	1032,18
755,417	1026,03
755,597	997,36
755,777	1030,13
755,957	1034,22
756,138	983,02
756,318	1048,56
756,498	1050,61
756,678	942,07
756,859	1009,65
757,039	991,22
757,219	958,45
757,399	921,59
757,579	909,3
757,759	892,91
757,939	890,87
758,119	909,3
758,3	878,58
758,48	796,66
758,66	747,51
758,84	722,93
759,02	770,04
759,2	745,46
759,38	718,84
759,56	899,06
759,74	729,08
759,919	677,88
760,099	804,85
760,279	735,22
760,459	729,08
760,639	731,12
760,819	718,84
760,999	686,07
761,178	837,62
761,358	731,12
761,538	673,78
761,718	688,12
761,898	669,69
762,077	722,93
762,257	661,49
762,437	790,52
762,616	690,17
762,796	665,59
762,976	704,5
763,155	669,69
763,335	731,12
763,515	659,45
763,694	739,32
763,874	696,31
764,053	677,88
764,233	731,12
764,413	743,41
764,592	835,57
764,772	780,28
764,951	669,69
765,131	647,16
765,31	772,08
765,489	712,69
765,669	675,83
765,848	776,18
766,028	700,41
766,207	610,29
766,386	657,4
766,566	690,17
766,745	688,12
766,924	696,31
767,104	745,46
767,283	696,31
767,462	733,17
767,642	657,4
767,821	702,45
768	655,35
768,179	747,51
768,358	655,35
768,538	710,65
768,717	641,01
768,896	657,4
769,075	690,17
769,254	567,29
769,433	581,62
769,612	690,17
769,791	655,35
769,97	497,66
770,149	546,81
770,328	403,45
770,507	595,96
770,686	557,05
770,865	509,94
771,044	591,86
771,223	530,42
771,402	591,86
771,581	604,15
771,76	434,17
771,939	550,9
772,118	575,48
772,297	555
772,475	550,9
772,654	548,86
772,833	604,15
773,012	565,24
773,191	583,67
773,369	573,43
773,548	663,54
773,727	477,18
773,906	669,69
774,084	487,42
774,263	460,79
774,442	454,65
774,62	518,14
774,799	428,03
774,977	509,94
775,156	581,62
775,335	520,18
775,513	477,18
775,692	468,98
775,87	583,67
776,049	483,32
776,227	458,74
776,406	430,07
776,584	501,75
776,763	534,52
776,941	352,25
777,119	417,79
777,298	372,73
777,476	526,33
777,655	417,79
777,833	403,45
778,011	413,69
778,19	530,42
778,368	356,35
778,546	450,55
778,725	481,27
778,903	409,59
779,081	325,63
779,259	370,68
779,437	329,72
779,616	405,5
779,794	409,59
779,972	428,03
780,15	403,45
780,328	354,3
780,506	368,63
780,685	325,63
780,863	354,3
781,041	251,9
781,219	413,69
781,397	446,46
781,575	411,64
781,753	393,21
781,931	319,48
782,109	354,3
782,287	309,24
782,465	364,54
782,643	370,68
782,82	354,3
782,998	444,41
783,176	387,07
783,354	282,62
783,532	335,87
783,71	292,86
783,888	319,48
784,065	305,15
784,243	305,15
784,421	358,39
784,599	309,24
784,776	374,78
784,954	303,1
785,132	303,1
785,31	243,71
785,487	329,72
785,665	288,76
785,842	378,87
786,02	442,36
786,198	288,76
786,375	294,91
786,553	292,86
786,73	313,34
786,908	212,99
787,085	319,48
787,263	206,84
787,44	272,38
787,618	311,29
787,795	280,57
787,973	249,85
788,15	274,43
788,328	305,15
788,505	305,15
788,682	282,62
788,86	215,04
789,037	288,76
789,215	223,23
789,392	208,89
789,569	354,3
789,746	249,85
789,924	219,13
790,101	303,1
790,278	253,95
790,455	249,85
790,633	305,15
790,81	227,32
790,987	178,17
791,164	231,42
791,341	249,85
791,518	184,32
791,695	256
791,873	237,56
792,05	227,32
792,227	198,65
792,404	235,52
792,581	202,75
792,758	258,04
792,935	223,23
793,112	284,67
793,289	223,23
793,466	247,8
793,643	157,69
793,82	204,8
793,996	133,12
794,173	251,9
794,35	190,46
794,527	256
794,704	266,24
794,881	169,98
795,057	223,23
795,234	169,98
795,411	243,71
795,588	157,69
795,765	108,54
795,941	190,46
796,118	165,89
796,295	264,19
796,471	182,27
796,648	153,6
796,825	198,65
797,001	237,56
797,178	258,04
797,354	256
797,531	116,73
797,708	176,13
797,884	221,18
798,061	161,79
798,237	157,69
798,414	227,32
798,59	180,22
798,767	172,03
798,943	264,19
799,119	280,57
799,296	235,52
799,472	194,56
799,649	122,88
799,825	256
800,001	178,17
800,178	137,21
800,354	194,56
800,53	143,36
800,707	169,98
800,883	204,8
801,059	79,87
801,235	208,89
801,411	47,1
801,588	157,69
801,764	253,95
801,94	124,93
802,116	98,3
802,292	159,74
802,468	124,93
802,645	198,65
802,821	131,07
802,997	182,27
803,173	124,93
803,349	114,69
803,525	137,21
803,701	131,07
803,877	106,49
804,053	155,65
804,229	161,79
804,405	141,31
804,581	126,97
804,756	186,37
804,932	131,07
805,108	159,74
805,284	96,25
805,46	208,89
805,636	135,17
805,812	141,31
805,987	131,07
806,163	157,69
806,339	264,19
806,515	94,21
806,69	133,12
806,866	131,07
807,042	147,45
807,217	108,54
807,393	116,73
807,569	57,34
807,744	155,65
807,92	112,64
808,096	153,6
808,271	98,3
808,447	65,53
808,622	63,49
808,798	83,97
808,973	92,16
809,149	167,93
809,324	135,17
809,5	114,69
809,675	139,26
809,851	120,83
810,026	122,88
810,201	172,03
810,377	139,26
810,552	129,02
810,728	165,89
810,903	188,41
811,078	137,21
811,253	65,53
811,429	53,25
811,604	116,73
811,779	149,5
811,955	79,87
812,13	65,53
812,305	122,88
812,48	83,97
812,655	169,98
812,83	124,93
813,006	79,87
813,181	67,58
813,356	71,68
813,531	-2,05
813,706	141,31
813,881	47,1
814,056	75,77
814,231	71,68
814,406	63,49
814,581	-6,14
814,756	98,3
814,931	38,91
815,106	88,06
815,281	57,34
815,456	73,73
815,631	40,96
815,805	139,26
815,98	14,34
816,155	167,93
816,33	131,07
816,505	100,35
816,68	63,49
816,854	-22,53
817,029	75,77
817,204	2,05
817,379	71,68
817,553	57,34
817,728	10,24
817,903	53,25
818,077	81,92
818,252	20,48
818,427	120,83
818,601	129,02
818,776	10,24
818,95	2,05
819,125	94,21
819,299	43,01
819,474	69,63
819,648	4,1
819,823	118,78
819,997	102,4
820,172	6,14
820,346	59,39
820,521	73,73
820,695	-2,05
820,87	40,96
821,044	24,58
821,218	141,31
821,393	106,49
821,567	24,58
821,741	43,01
821,916	-8,19
822,09	-6,14
822,264	96,25
822,438	-34,82
822,613	51,2
822,787	22,53
822,961	92,16
823,135	92,16
823,309	38,91
823,483	30,72
823,658	137,21
823,832	77,82
824,006	-81,92
824,18	36,86
824,354	16,38
824,528	47,1
824,702	98,3
824,876	8,19
825,05	122,88
825,224	8,19
825,398	116,73
825,572	-36,86
825,746	-6,14
825,92	34,82
826,093	49,15
826,267	90,11
826,441	57,34
826,615	75,77
826,789	108,54
826,963	75,77
827,136	8,19
827,31	57,34
827,484	18,43
827,658	-14,34
827,831	90,11
828,005	51,2
828,179	14,34
828,353	12,29
828,526	20,48
828,7	34,82
828,873	-20,48
829,047	4,1
829,221	32,77
829,394	10,24
829,568	59,39
829,741	4,1
829,915	-18,43
830,088	32,77
830,262	100,35
830,435	43,01
830,609	26,62
830,782	26,62
830,956	79,87
831,129	24,58
831,302	55,3
831,476	24,58
831,649	0
831,822	-8,19
831,996	92,16
832,169	14,34
832,342	-4,1
832,516	124,93
832,689	-14,34
832,862	65,53
833,035	30,72
833,209	40,96
833,382	55,3
833,555	-2,05
833,728	-40,96
833,901	-14,34
834,074	40,96
834,247	-16,38
834,42	63,49
834,594	-8,19
834,767	73,73
834,94	49,15
835,113	88,06
835,286	34,82
835,459	22,53
835,632	6,14
835,805	32,77
835,977	67,58
836,15	65,53
836,323	-47,1
836,496	81,92
836,669	51,2
836,842	16,38
837,015	100,35
837,188	81,92
837,36	81,92
837,533	51,2
837,706	57,34
837,879	67,58
838,051	-18,43
838,224	79,87
838,397	59,39
838,569	75,77
838,742	22,53
838,915	100,35
839,087	57,34
839,26	118,78
839,433	133,12
839,605	131,07
839,778	-43,01
839,95	40,96
840,123	20,48
840,295	14,34
840,468	-47,1
840,64	-34,82
840,813	38,91
840,985	2,05
841,158	59,39
841,33	83,97
841,502	51,2
841,675	34,82
841,847	75,77
842,019	67,58
842,192	-30,72
842,364	8,19
842,536	81,92
842,709	-14,34
842,881	18,43
843,053	65,53
843,225	-8,19
843,398	34,82
843,57	57,34
843,742	18,43
843,914	32,77
844,086	90,11
844,258	-49,15
844,43	43,01
844,602	102,4
844,775	8,19
844,947	8,19
845,119	102,4
845,291	90,11
845,463	28,67
845,635	-22,53
845,807	16,38
845,979	59,39
846,15	49,15
846,322	67,58
846,494	-38,91
846,666	-8,19
846,838	-32,77
847,01	-4,1
847,182	14,34
847,354	32,77
847,525	-32,77
847,697	-49,15
847,869	-51,2
848,041	43,01
848,212	-22,53
848,384	-20,48
848,556	-38,91
848,727	81,92
848,899	-88,06
849,071	43,01
849,242	24,58
849,414	49,15
849,585	-6,14
849,757	51,2
849,929	34,82
850,1	-6,14
850,272	16,38
850,443	-6,14
850,615	40,96
850,786	45,06
850,958	2,05
851,129	51,2
851,3	96,25
851,472	73,73
851,643	2,05
851,815	34,82
851,986	40,96
852,157	-38,91
852,329	116,73
852,5	-10,24
852,671	147,45
852,842	-10,24
853,014	26,62
853,185	2,05
853,356	-55,3
853,527	-10,24
853,698	32,77
853,87	-6,14
854,041	118,78
854,212	34,82
854,383	43,01
854,554	-16,38
854,725	106,49
854,896	-18,43
855,067	10,24
855,238	26,62
855,409	-14,34
855,58	92,16
855,751	92,16
855,922	61,44
856,093	172,03
856,264	18,43
856,435	55,3
856,606	34,82
856,777	67,58
856,948	8,19
857,118	20,48
857,289	16,38
857,46	106,49
857,631	22,53
857,802	83,97
857,972	57,34
858,143	147,45
858,314	-65,54
858,484	-26,62
858,655	-63,49
858,826	18,43
858,996	-16,38
859,167	53,25
859,338	57,34
859,508	10,24
859,679	4,1
859,849	55,3
860,02	10,24
860,19	-30,72
860,361	28,67
860,531	-47,1
860,702	133,12
860,872	122,88
861,043	40,96
861,213	-14,34
861,384	4,1
861,554	49,15
861,724	-98,3
861,895	-65,54
862,065	10,24
862,235	18,43
862,406	-8,19
862,576	10,24
862,746	-32,77
862,916	-43,01
863,087	34,82
863,257	-16,38
863,427	-28,67
863,597	40,96
863,767	67,58
863,937	-36,86
864,108	114,69
864,278	30,72
864,448	26,62
864,618	36,86
864,788	-71,68
864,958	57,34
865,128	18,43
865,298	2,05
865,468	8,19
865,638	-40,96
865,808	30,72
865,978	73,73
866,148	0
866,318	-18,43
866,487	-55,3
866,657	-59,39
866,827	16,38
866,997	-6,14
867,167	38,91
867,337	75,77
867,506	67,58
867,676	10,24
867,846	-47,1
868,016	-6,14
868,185	-59,39
868,355	47,1
868,525	34,82
868,694	-47,1
868,864	59,39
869,034	-63,49
869,203	8,19
869,373	-10,24
869,542	51,2
869,712	-6,14
869,881	-8,19
870,051	-22,53
870,22	26,62
870,39	-12,29
870,559	-43,01
870,729	-51,2
870,898	0
871,068	34,82
871,237	10,24
871,406	-28,67
871,576	73,73
871,745	2,05
871,914	12,29
872,084	-10,24
872,253	-53,25
872,422	-16,38
872,591	-22,53
872,761	-73,73
872,93	385,02
873,099	-38,91
873,268	-55,3
873,437	-36,86
873,607	-34,82
873,776	2,05
873,945	-30,72
874,114	-8,19
874,283	-6,14
874,452	2,05
874,621	69,63
874,79	-18,43
874,959	-14,34
875,128	2,05
875,297	12,29
875,466	112,64
875,635	16,38
875,804	43,01
875,973	-86,01
876,142	38,91
876,31	-22,53
876,479	-47,1
876,648	57,34
876,817	-47,1
876,986	51,2
877,155	-8,19
877,323	12,29
877,492	6,14
877,661	88,06
877,829	-10,24
877,998	18,43
878,167	20,48
878,335	-30,72
878,504	-49,15
878,673	-47,1
878,841	-45,06
879,01	-57,34
879,178	-45,06
879,347	-24,58
879,515	-55,3
879,684	106,49
879,852	-94,21
880,021	30,72
880,189	10,24
880,358	-38,91
880,526	157,69
880,695	-73,73
880,863	22,53
881,031	22,53
881,2	-90,11
881,368	-49,15
881,536	57,34
881,705	2,05
881,873	-53,25
882,041	14,34
882,21	-10,24
882,378	32,77
882,546	26,62
882,714	30,72
882,882	-32,77
883,05	18,43
883,219	-34,82
883,387	-24,58
883,555	-26,62
883,723	-92,16
883,891	-6,14
884,059	18,43
884,227	-6,14
884,395	-40,96
884,563	51,2
884,731	32,77
884,899	55,3
885,067	73,73
885,235	-6,14
885,403	30,72
885,571	-8,19
885,739	18,43
